Sample Index, EXG Channel 0, EXG Channel 1, EXG Channel 2, EXG Channel 3, Accel Channel 0, Accel Channel 1, Accel Channel 2, Other, Other, Other, Other, Other, Timestamp, Marker Channel, Timestamp (Formatted)
0.0, -189.9046399500221, 69.05351278185844, -423.7063556299545, -437.6000839653425, 0.0, 0.0, 0.0, 0.0, 0.0, 0.0, 0.0, 0.0, 1.7564856372103584E9, 0.0, 2025-08-29 13:40:37.210
1.0, -128.3402768294327, -138.20052306260914, -658.181253301911, -195.09375113854185, 0.0, 0.04800000227987766, 0.0, 0.0, 0.0, 0.0, 0.0, 0.0, 1.7564856372237475E9, 0.0, 2025-08-29 13:40:37.223
1.0, 72.51105029089376, 17.139961496926844, -809.8977748043835, -352.0012537795119, 0.0, 0.04800000227987766, 0.0, 0.0, 0.0, 0.0, 0.0, 0.0, 1.7564856372237475E9, 0.0, 2025-08-29 13:40:37.223
2.0, 86.39729882637039, 146.4806615645066, -929.6344117857516, -470.4177060765214, 0.0, 0.04800000227987766, 0.0, 0.0, 0.0, 0.0, 0.0, 0.0, 1.756485637255636E9, 0.0, 2025-08-29 13:40:37.255
2.0, -120.16111562633887, -66.15135041624308, -684.8990985853598, -235.67914545768872, 0.0, 0.04800000227987766, 0.0, 0.0, 0.0, 0.0, 0.0, 0.0, 1.756485637255636E9, 0.0, 2025-08-29 13:40:37.255
3.0, -167.25206591840833, -41.04166211374104, -705.3488715430722, -236.45330474851653, 0.0, 0.04800000227987766, 0.0, 0.0, 0.0, 0.0, 0.0, 0.0, 1.7564856372564583E9, 0.0, 2025-08-29 13:40:37.256
3.0, -246.66323162754998, 152.9207692882046, -942.2378746364266, -468.0653090043925, 0.0, 0.04800000227987766, 0.0, 0.0, 0.0, 0.0, 0.0, 0.0, 1.7564856372564583E9, 0.0, 2025-08-29 13:40:37.256
4.0, -431.3806303390302, 13.078430145047605, -775.1802835157141, -309.8750206786208, 0.0, 0.04800000227987766, 0.0, 0.0, 0.0, 0.0, 0.0, 0.0, 1.756485637257134E9, 0.0, 2025-08-29 13:40:37.257
4.0, -432.09121133061126, -108.25140421744436, -639.8370440192521, -175.6612309687771, 0.0, 0.04800000227987766, 0.0, 0.0, 0.0, 0.0, 0.0, 0.0, 1.756485637257134E9, 0.0, 2025-08-29 13:40:37.257
5.0, -264.6671100142412, 107.61188132502139, -878.7119339890778, -413.60114594968036, 0.0, 0.04800000227987766, 0.0, 0.0, 0.0, 0.0, 0.0, 0.0, 1.7564856372578647E9, 0.0, 2025-08-29 13:40:37.257
5.0, -155.3292648596689, 104.53768356144428, -878.5137192914262, -413.33935295278206, 0.0, 0.04800000227987766, 0.0, 0.0, 0.0, 0.0, 0.0, 0.0, 1.7564856372578647E9, 0.0, 2025-08-29 13:40:37.257
6.0, -109.65199675085023, -106.65446693636477, -641.7443929966539, -655.0023383395746, 0.0, 0.04800000227987766, 0.0, 0.0, 0.0, 0.0, 0.0, 0.0, 1.7564856372685688E9, 0.0, 2025-08-29 13:40:37.268
6.0, 82.78455546917394, 46.898345444351435, -784.1822227090597, -799.5868706265464, 0.0, 0.04800000227987766, 0.0, 0.0, 0.0, 0.0, 0.0, 0.0, 1.7564856372685688E9, 0.0, 2025-08-29 13:40:37.268
7.0, 92.19040385773405, 145.70650227367878, -931.306147065945, -960.492326320149, 0.0, 0.04800000227987766, 0.0, 0.0, 0.0, 0.0, 0.0, 0.0, 1.7564856372999673E9, 0.0, 2025-08-29 13:40:37.299
7.0, -110.24664084380493, -76.79136579018086, -704.2867399556562, -731.1878403369337, 0.0, 0.04800000227987766, 0.0, 0.0, 0.0, 0.0, 0.0, 0.0, 1.7564856372999673E9, 0.0, 2025-08-29 13:40:37.299
8.0, -167.84671001136303, -42.56380139570683, -689.7422690279782, -719.6053701741621, 0.0, 0.04800000227987766, 0.0, 0.0, 0.0, 0.0, 0.0, 0.0, 1.75648563730069E9, 0.0, 2025-08-29 13:40:37.300
8.0, -244.81198114948347, 162.0797842796892, -924.0769204515964, -955.6454159775749, 0.0, 0.04800000227987766, 0.0, 0.0, 0.0, 0.0, 0.0, 0.0, 1.75648563730069E9, 0.0, 2025-08-29 13:40:37.300
9.0, -423.4333429331891, 14.121862232685089, -818.0395370079204, -828.8665473796427, 0.0, 0.04800000227987766, 0.0, 0.0, 0.0, 0.0, 0.0, 0.0, 1.756485637301427E9, 0.0, 2025-08-29 13:40:37.301
9.0, -448.18400083994493, -106.29917644057423, -642.3577365893871, -661.5135041624308, 0.0, 0.04800000227987766, 0.0, 0.0, 0.0, 0.0, 0.0, 0.0, 1.756485637301427E9, 0.0, 2025-08-29 13:40:37.301
10.0, -270.31061904737726, 116.44552502036095, -864.9565819520503, -874.5382056385279, 0.0, 0.04800000227987766, 0.9760000463575125, 0.0, 0.0, 0.0, 0.0, 0.0, 1.756485637313521E9, 0.0, 2025-08-29 13:40:37.313
10.0, -128.360846279189, 106.54226993769407, -867.9597216164693, -888.345916274935, 0.0, 0.04800000227987766, 0.9760000463575125, 0.0, 0.0, 0.0, 0.0, 0.0, 1.756485637313521E9, 0.0, 2025-08-29 13:40:37.313
11.0, -124.41712177591398, -120.15550577640533, -661.9772517569363, -678.4290716620162, 0.0, 0.01600000075995922, 0.9760000463575125, 0.0, 0.0, 0.0, 0.0, 0.0, 1.7564856373292673E9, 0.0, 2025-08-29 13:40:37.329
11.0, 67.54446314973757, 35.53278947900981, -774.9222304187715, -814.957859444432, 0.0, 0.01600000075995922, 0.9760000463575125, 0.0, 0.0, 0.0, 0.0, 0.0, 1.7564856373292673E9, 0.0, 2025-08-29 13:40:37.329
12.0, 113.44799520587549, 157.80507863033563, -909.2407373273745, -957.1301562599838, 0.0, 0.01600000075995922, 0.9760000463575125, 0.0, 0.0, 0.0, 0.0, 0.0, 1.756485637329987E9, 0.0, 2025-08-29 13:40:37.329
12.0, -95.08882632339373, -69.06099258176982, -697.2071093395352, -725.4807530045509, 0.0, 0.01600000075995922, 0.9760000463575125, 0.0, 0.0, 0.0, 0.0, 0.0, 1.756485637329987E9, 0.0, 2025-08-29 13:40:37.329
13.0, -178.20623288862407, -43.34170058649033, -677.2210839763284, -695.6101720584556, 0.0, 0.01600000075995922, 0.9760000463575125, 0.0, 0.0, 0.0, 0.0, 0.0, 1.7564856373435335E9, 0.0, 2025-08-29 13:40:37.343
13.0, -254.47962253494188, 154.5588454687968, -905.568155570887, -927.8392598070204, 0.0, 0.01600000075995922, 0.9760000463575125, 0.0, 0.0, 0.0, 0.0, 0.0, 1.7564856373435335E9, 0.0, 2025-08-29 13:40:37.343
14.0, -394.89042647136375, 22.005571339279413, -778.8453854722902, -789.7920726425946, 0.0, 0.01600000075995922, 0.9760000463575125, 0.0, 0.0, 0.0, 0.0, 0.0, 1.756485637359316E9, 0.0, 2025-08-29 13:40:37.359
14.0, -428.79261956969276, -92.98513259831816, -636.4075557598844, -646.1799143441021, 0.0, 0.01600000075995922, 0.9760000463575125, 0.0, 0.0, 0.0, 0.0, 0.0, 1.756485637359316E9, 0.0, 2025-08-29 13:40:37.359
15.0, -279.9707806329243, 110.125094095245, -397.08200784539804, -870.8319647824392, 0.0, 0.01600000075995922, 0.9760000463575125, 0.0, 0.0, 0.0, 0.0, 0.0, 1.7564856373600304E9, 0.0, 2025-08-29 13:40:37.360
15.0, -116.38568662106991, 109.22751810587943, -394.85676737176254, -888.3010374754667, 0.0, 0.01600000075995922, 0.9760000463575125, 0.0, 0.0, 0.0, 0.0, 0.0, 1.7564856373600304E9, 0.0, 2025-08-29 13:40:37.360
16.0, -102.69204293331131, -108.5318967141211, -632.3198451083153, -665.5002375151962, 0.0, 0.01600000075995922, 0.9760000463575125, 0.0, 0.0, 0.0, 0.0, 0.0, 1.7564856373735151E9, 0.0, 2025-08-29 13:40:37.373
16.0, 47.506079187151045, 28.756090759299695, -755.8337810449302, -791.5049468223006, 0.0, 0.01600000075995922, 0.9760000463575125, 0.0, 0.0, 0.0, 0.0, 0.0, 1.7564856373735151E9, 0.0, 2025-08-29 13:40:37.373
17.0, 114.5924045923166, 151.83245840109885, -925.3297869367525, -943.0382132269442, 0.0, 0.01600000075995922, 0.9760000463575125, 0.0, 0.0, 0.0, 0.0, 0.0, 1.756485637389302E9, 0.0, 2025-08-29 13:40:37.389
17.0, -65.61841467255726, -51.681677487678826, -735.3391292877495, -758.320814515464, 0.0, 0.01600000075995922, 0.9760000463575125, 0.0, 0.0, 0.0, 0.0, 0.0, 1.756485637389302E9, 0.0, 2025-08-29 13:40:37.389
18.0, -197.12264686450362, -46.831027245149016, -718.4534809878096, -729.291711059399, 0.0, 0.01600000075995922, 0.9760000463575125, 0.0, 0.0, 0.0, 0.0, 0.0, 1.7564856373900516E9, 0.0, 2025-08-29 13:40:37.390
18.0, -253.802700642962, 159.51421291008592, -873.7191675482318, -887.1790674887598, 0.0, 0.01600000075995922, 0.9760000463575125, 0.0, 0.0, 0.0, 0.0, 0.0, 1.7564856373900516E9, 0.0, 2025-08-29 13:40:37.390
19.0, -365.8650629152544, 32.428672515787184, -749.9097795151174, -757.3484405269846, 0.0, 0.01600000075995922, 0.9760000463575125, 0.0, 0.0, 0.0, 0.0, 0.0, 1.7564856374035146E9, 0.0, 2025-08-29 13:40:37.403
19.0, -425.05645951395854, -91.43307411670685, -583.3121960889548, -592.5347893796861, 0.0, 0.01600000075995922, 0.9760000463575125, 0.0, 0.0, 0.0, 0.0, 0.0, 1.7564856374035146E9, 0.0, 2025-08-29 13:40:37.403
20.0, -256.16257751500234, 128.42442457843572, -768.9795293891802, -780.5507798520848, 0.0, 0.01600000075995922, 0.49600002355873585, 0.0, 0.0, 0.0, 0.0, 0.0, 1.7564856374192684E9, 0.0, 2025-08-29 13:40:37.419
20.0, -63.85505184344947, 136.59984588157386, -789.7584135429934, -763.3397602559999, 0.0, 0.01600000075995922, 0.49600002355873585, 0.0, 0.0, 0.0, 0.0, 0.0, 1.7564856374192684E9, 0.0, 2025-08-29 13:40:37.419
21.0, -42.83868404245004, -70.05206607002765, -1022.894427030813, -1006.8614759207703, 0.0, 0.03200000151991844, 0.49600002355873585, 0.0, 0.0, 0.0, 0.0, 0.0, 1.7564856374199996E9, 0.0, 2025-08-29 13:40:37.419
21.0, 103.94864931842312, 76.00598679948598, -1094.1657004863955, -1089.7600983385928, 0.0, 0.03200000151991844, 0.49600002355873585, 0.0, 0.0, 0.0, 0.0, 0.0, 1.7564856374199996E9, 0.0, 2025-08-29 13:40:37.419
22.0, 181.11400510417297, 198.78690234478563, -1248.402914559003, -1245.9383204882033, 0.0, 0.03200000151991844, 0.49600002355873585, 0.0, 0.0, 0.0, 0.0, 0.0, 1.7564856374335687E9, 0.0, 2025-08-29 13:40:37.433
22.0, 0.7348903412930667, -14.163001132197678, -1045.6704177609645, -1033.6840384029783, 0.0, 0.03200000151991844, 0.49600002355873585, 0.0, 0.0, 0.0, 0.0, 0.0, 1.7564856374335687E9, 0.0, 2025-08-29 13:40:37.433
23.0, -128.36458617914468, 13.336483241990209, -1007.179367417004, -976.2204755838029, 0.0, 0.03200000151991844, 0.49600002355873585, 0.0, 0.0, 0.0, 0.0, 0.0, 1.7564856374492784E9, 0.0, 2025-08-29 13:40:37.449
23.0, -180.4034241125919, 218.03990731667727, -1223.5138803538866, -1193.8115949057974, 0.0, 0.03200000151991844, 0.49600002355873585, 0.0, 0.0, 0.0, 0.0, 0.0, 1.7564856374492784E9, 0.0, 2025-08-29 13:40:37.449
24.0, -288.4902727319859, 82.76024611946195, -1135.1624838006683, -1092.0189979118295, 0.0, 0.03200000151991844, 0.49600002355873585, 0.0, 0.0, 0.0, 0.0, 0.0, 1.7564856374500341E9, 0.0, 2025-08-29 13:40:37.450
24.0, -362.8881025505252, -47.691204234957695, -1003.9817529548891, -953.9231920479797, 0.0, 0.03200000151991844, 0.49600002355873585, 0.0, 0.0, 0.0, 0.0, 0.0, 1.7564856374500341E9, 0.0, 2025-08-29 13:40:37.450
25.0, -229.6840858287178, 167.36426291707903, -1200.1095864311792, -1164.677774250973, 0.0, 0.03200000151991844, 0.49600002355873585, 0.0, 0.0, 0.0, 0.0, 0.0, 1.7564856374635892E9, 0.0, 2025-08-29 13:40:37.463
25.0, -27.78745667077601, 165.01186584495008, -1237.1308560925536, -1213.823799568694, 0.0, 0.03200000151991844, 0.49600002355873585, 0.0, 0.0, 0.0, 0.0, 0.0, 1.7564856374635892E9, 0.0, 2025-08-29 13:40:37.463
26.0, -10.922377820592374, -49.02634851913899, -1012.8677552496083, -992.2496867938899, 0.0, 0.03200000151991844, 0.49600002355873585, 0.0, 0.0, 0.0, 0.0, 0.0, 1.7564856374792683E9, 0.0, 2025-08-29 13:40:37.479
26.0, 93.86961893783882, 84.62645619735122, -1127.544307590928, -1098.0028378409334, 0.0, 0.03200000151991844, 0.49600002355873585, 0.0, 0.0, 0.0, 0.0, 0.0, 1.7564856374792683E9, 0.0, 2025-08-29 13:40:37.479
27.0, 185.8075795485638, 203.86194658465683, -1292.784307333175, -1262.9885243861936, 0.0, 0.03200000151991844, 0.49600002355873585, 0.0, 0.0, 0.0, 0.0, 0.0, 1.7564856374799993E9, 0.0, 2025-08-29 13:40:37.479
27.0, 10.597006524447352, -15.348549418151379, -1155.1036303644069, -1097.1576204509474, 0.0, 0.03200000151991844, 0.49600002355873585, 0.0, 0.0, 0.0, 0.0, 0.0, 1.7564856374799993E9, 0.0, 2025-08-29 13:40:37.479
28.0, -167.5662175146863, -11.548811063170433, -1089.5843230406754, -1051.7814142885618, 0.0, 0.03200000151991844, 0.49600002355873585, 0.0, 0.0, 0.0, 0.0, 0.0, 1.7564856374936287E9, 0.0, 2025-08-29 13:40:37.493
28.0, -230.0879950239323, 192.15979962330312, -1270.8198748934083, -1278.999036096502, 0.0, 0.03200000151991844, 0.49600002355873585, 0.0, 0.0, 0.0, 0.0, 0.0, 1.7564856374936287E9, 0.0, 2025-08-29 13:40:37.493
29.0, -279.0769445435144, 75.64695640373975, -1177.8945806943811, -1174.711925832089, 0.0, 0.03200000151991844, 0.49600002355873585, 0.0, 0.0, 0.0, 0.0, 0.0, 1.7564856375092869E9, 0.0, 2025-08-29 13:40:37.509
29.0, -388.52137684682384, -56.66322422865778, -1051.6280783903785, -1006.2593520279042, 0.0, 0.03200000151991844, 0.49600002355873585, 0.0, 0.0, 0.0, 0.0, 0.0, 1.7564856375092869E9, 0.0, 2025-08-29 13:40:37.509
30.0, -265.9685951988213, 147.44929565303028, -1223.461521754507, -1195.636666084174, 0.0, 0.03200000151991844, 0.7360000349581242, 0.0, 0.0, 0.0, 0.0, 0.0, 1.7564856375100048E9, 0.0, 2025-08-29 13:40:37.510
30.0, -21.066856450401247, 160.2584530012682, -1253.3208830007352, -1239.8609830602072, 0.0, 0.03200000151991844, 0.7360000349581242, 0.0, 0.0, 0.0, 0.0, 0.0, 1.7564856375100048E9, 0.0, 2025-08-29 13:40:37.510
31.0, -19.96919581340626, -41.07906111329794, -1053.8121799645014, -1041.0591211155988, 0.0, 0.04800000227987766, 0.7360000349581242, 0.0, 0.0, 0.0, 0.0, 0.0, 1.7564856375235891E9, 0.0, 2025-08-29 13:40:37.523
31.0, 72.30909569328651, 87.7081337608397, -1151.7078012046404, -1129.1861236714758, 0.0, 0.04800000227987766, 0.7360000349581242, 0.0, 0.0, 0.0, 0.0, 0.0, 1.7564856375235891E9, 0.0, 2025-08-29 13:40:37.523
32.0, 175.79960726713762, 200.00610973034054, -1315.6238763625734, -1292.507554736454, 0.0, 0.04800000227987766, 0.7360000349581242, 0.0, 0.0, 0.0, 0.0, 0.0, 1.7564856375392165E9, 0.0, 2025-08-29 13:40:37.539
32.0, 17.16427084663883, -12.592243150807917, -1132.9559428268112, -1109.7760429014452, 0.0, 0.04800000227987766, 0.7360000349581242, 0.0, 0.0, 0.0, 0.0, 0.0, 1.7564856375392165E9, 0.0, 2025-08-29 13:40:37.539
33.0, -169.09583659656346, -0.28049249667674303, -1087.7704715621658, -1071.8197982511483, 0.0, 0.04800000227987766, 0.7360000349581242, 0.0, 0.0, 0.0, 0.0, 0.0, 1.7564856375400226E9, 0.0, 2025-08-29 13:40:37.540
33.0, -229.87856062641367, 192.4963906193152, -1303.663676304277, -1284.3209137334488, 0.0, 0.04800000227987766, 0.7360000349581242, 0.0, 0.0, 0.0, 0.0, 0.0, 1.7564856375400226E9, 0.0, 2025-08-29 13:40:37.540
34.0, -294.50403186073527, 62.28055396210402, -1218.5061543132178, -1213.1580973765813, 0.0, 0.04800000227987766, 0.7360000349581242, 0.0, 0.0, 0.0, 0.0, 0.0, 1.7564856375536609E9, 0.0, 2025-08-29 13:40:37.553
34.0, -396.5771213513799, -55.12238544691354, -1050.4687094041146, -1036.6348194680177, 0.0, 0.04800000227987766, 0.7360000349581242, 0.0, 0.0, 0.0, 0.0, 0.0, 1.7564856375536609E9, 0.0, 2025-08-29 13:40:37.553
35.0, -273.2165213129483, 148.8480182364583, -1228.5664851940237, -1213.053380177822, 0.0, 0.04800000227987766, 0.7360000349581242, 0.0, 0.0, 0.0, 0.0, 0.0, 1.7564856375692892E9, 0.0, 2025-08-29 13:40:37.569
35.0, -29.33577525243163, 151.73148110229522, -1278.0902404072694, -1270.086854502093, 0.0, 0.04800000227987766, 0.7360000349581242, 0.0, 0.0, 0.0, 0.0, 0.0, 1.7564856375692892E9, 0.0, 2025-08-29 13:40:37.569
36.0, -23.18550977529958, -54.912951049394906, -1066.9429687089287, -1063.333965251688, 0.0, 0.04800000227987766, 0.7360000349581242, 0.0, 0.0, 0.0, 0.0, 0.0, 1.7564856375700305E9, 0.0, 2025-08-29 13:40:37.570
36.0, 65.09108877880499, 87.34536346513778, -1135.5925722955726, -1141.1612833295949, 0.0, 0.04800000227987766, 0.7360000349581242, 0.0, 0.0, 0.0, 0.0, 0.0, 1.7564856375700305E9, 0.0, 2025-08-29 13:40:37.570
37.0, 168.510542253498, 197.29468226246536, -1323.466446569655, -1295.6415908993222, 0.0, 0.04800000227987766, 0.7360000349581242, 0.0, 0.0, 0.0, 0.0, 0.0, 1.756485637583564E9, 0.0, 2025-08-29 13:40:37.583
37.0, 21.218322398606688, -14.570650227367878, -1142.3393518156372, -1121.7138035600074, 0.0, 0.04800000227987766, 0.7360000349581242, 0.0, 0.0, 0.0, 0.0, 0.0, 1.756485637583564E9, 0.0, 2025-08-29 13:40:37.583
38.0, -156.87384354136884, 20.042123862542212, -1043.8378667826764, -1046.194003754761, 0.0, 0.04800000227987766, 0.7360000349581242, 0.0, 0.0, 0.0, 0.0, 0.0, 1.75648563759928E9, 0.0, 2025-08-29 13:40:37.599
38.0, -256.2897341134958, 169.49974579177797, -804.9087482634932, -817.8488021101803, 0.0, 0.04800000227987766, 0.7360000349581242, 0.0, 0.0, 0.0, 0.0, 0.0, 1.75648563759928E9, 0.0, 2025-08-29 13:40:37.599
39.0, -285.83494376344606, 57.762754815630615, -737.1230615666136, -725.6303490027785, 0.0, 0.04800000227987766, 0.7360000349581242, 0.0, 0.0, 0.0, 0.0, 0.0, 1.7564856376000135E9, 0.0, 2025-08-29 13:40:37.600
39.0, -348.8185989172198, 0.40764909517019987, -518.2154974602163, -494.6391681395471, 0.0, 0.04800000227987766, 0.7360000349581242, 0.0, 0.0, 0.0, 0.0, 0.0, 1.7564856376000135E9, 0.0, 2025-08-29 13:40:37.600
40.0, -253.12203885102645, 172.73101935349405, -719.3024382777512, -701.51547408849, 0.0, 0.04800000227987766, 0.8640000410377979, 0.0, 0.0, 0.0, 0.0, 0.0, 1.7564856376135395E9, 0.0, 2025-08-29 13:40:37.613
40.0, -62.10103876423091, 128.951750472188, -826.0429229130968, -810.2530653001741, 0.0, 0.04800000227987766, 0.8640000410377979, 0.0, 0.0, 0.0, 0.0, 0.0, 1.7564856376135395E9, 0.0, 2025-08-29 13:40:37.613
41.0, 5.907171980012208, -18.336729482747614, -1040.8197675184347, -1034.7686093901284, 0.0, 0.04800000227987766, 0.8640000410377979, 0.0, 0.0, 0.0, 0.0, 0.0, 1.7564856376292224E9, 0.0, 2025-08-29 13:40:37.629
41.0, 79.39994600927457, 112.09976127184927, -1101.8362352955155, -1097.344615448732, 0.0, 0.04800000227987766, 0.8640000410377979, 0.0, 0.0, 0.0, 0.0, 0.0, 1.7564856376292224E9, 0.0, 2025-08-29 13:40:37.629
42.0, 158.78680236870423, 177.06556340213865, -1323.8105173655786, -1330.9761656806804, 0.0, 0.04800000227987766, 0.8640000410377979, 0.0, 0.0, 0.0, 0.0, 0.0, 1.756485637630006E9, 0.0, 2025-08-29 13:40:37.630
42.0, 42.32257784856483, 22.91436702851206, -1112.4388516698964, -1116.6462391200475, 0.0, 0.04800000227987766, 0.8640000410377979, 0.0, 0.0, 0.0, 0.0, 0.0, 1.756485637630006E9, 0.0, 2025-08-29 13:40:37.630
43.0, -122.70611754618585, 64.41229693684727, -1008.2340192045085, -1003.9817529548891, 0.0, 0.04800000227987766, 0.8640000410377979, 0.0, 0.0, 0.0, 0.0, 0.0, 1.756485637643655E9, 0.0, 2025-08-29 13:40:37.643
43.0, -249.7336894911714, 171.85214286390692, -815.5637232372537, -803.9363742750138, 0.0, 0.04800000227987766, 0.8640000410377979, 0.0, 0.0, 0.0, 0.0, 0.0, 1.756485637643655E9, 0.0, 2025-08-29 13:40:37.643
44.0, -294.0028852666728, 47.11525964178145, -781.4707952411845, -746.3793139569461, 0.0, 0.04800000227987766, 0.8640000410377979, 0.0, 0.0, 0.0, 0.0, 0.0, 1.7564856376592762E9, 0.0, 2025-08-29 13:40:37.659
44.0, -355.84213103400543, -7.674274709075689, -1009.700059987139, -501.59164215717465, 0.0, 0.04800000227987766, 0.8640000410377979, 0.0, 0.0, 0.0, 0.0, 0.0, 1.7564856376592762E9, 0.0, 2025-08-29 13:40:37.659
45.0, -274.01685990346596, 155.0001536635682, -1195.988216680009, -701.0405067941174, 0.0, 0.04800000227987766, 0.8640000410377979, 0.0, 0.0, 0.0, 0.0, 0.0, 1.7564856376599948E9, 0.0, 2025-08-29 13:40:37.659
45.0, -59.52050779480487, 105.0500498553738, -1307.4858540589921, -825.8858471149579, 0.0, 0.04800000227987766, 0.8640000410377979, 0.0, 0.0, 0.0, 0.0, 0.0, 1.7564856376599948E9, 0.0, 2025-08-29 13:40:37.659
46.0, 5.514482484664768, -30.92149283364415, -1529.0506170839071, -1041.4892096105032, 0.0, 0.04800000227987766, 0.8640000410377979, 0.0, 0.0, 0.0, 0.0, 0.0, 1.7564856376899717E9, 0.0, 2025-08-29 13:40:37.689
46.0, 74.10424767201766, 105.33054235205054, -1592.8420906281099, -1109.8059621010907, 0.0, 0.04800000227987766, 0.8640000410377979, 0.0, 0.0, 0.0, 0.0, 0.0, 1.7564856376899717E9, 0.0, 2025-08-29 13:40:37.689
47.0, 136.44837993336841, 150.1083645215258, -1828.1341564403847, -1354.06630800711, 0.0, 0.04800000227987766, 0.8640000410377979, 0.0, 0.0, 0.0, 0.0, 0.0, 1.756485637690692E9, 0.0, 2025-08-29 13:40:37.690
47.0, 28.567225811537355, -17.121261997148395, -1648.5441605681553, -1175.4187669237144, 0.0, 0.04800000227987766, 0.8640000410377979, 0.0, 0.0, 0.0, 0.0, 0.0, 1.756485637690692E9, 0.0, 2025-08-29 13:40:37.690
48.0, -149.7381144259125, 30.274490141309798, -1527.8501091981307, -1045.4609833634458, 0.0, 0.04800000227987766, 0.8640000410377979, 0.0, 0.0, 0.0, 0.0, 0.0, 1.7564856376914585E9, 0.0, 2025-08-29 13:40:37.691
48.0, -260.1006921683438, 175.83887621667236, -1300.3276855438016, -802.5077324919403, 0.0, 0.04800000227987766, 0.8640000410377979, 0.0, 0.0, 0.0, 0.0, 0.0, 1.7564856376914585E9, 0.0, 2025-08-29 13:40:37.691
49.0, -284.87378947483376, 46.18028465285897, -1251.611748720985, -762.8610530616716, 0.0, 0.04800000227987766, 0.8640000410377979, 0.0, 0.0, 0.0, 0.0, 0.0, 1.756485637703555E9, 0.0, 2025-08-29 13:40:37.703
49.0, -367.7163133933209, -16.739792201668024, -1028.283622866962, -530.8563593104482, 0.0, 0.04800000227987766, 0.8640000410377979, 0.0, 0.0, 0.0, 0.0, 0.0, 1.756485637703555E9, 0.0, 2025-08-29 13:40:37.703
50.0, -297.8587221209891, 148.67972273845226, -1215.1851231525652, -723.7117803255096, 0.0, 0.04800000227987766, 0.9120000433176756, 0.0, 0.0, 0.0, 0.0, 0.0, 1.7564856377192743E9, 0.0, 2025-08-29 13:40:37.719
50.0, -73.62367052771151, 97.72732574213296, -1349.410132562276, -844.0318416999653, 0.0, 0.04800000227987766, 0.9120000433176756, 0.0, 0.0, 0.0, 0.0, 0.0, 1.7564856377192743E9, 0.0, 2025-08-29 13:40:37.719
51.0, -18.607872229535133, -59.88701799046248, -1576.1883161254227, -1081.3789825378917, 0.0, 0.04800000227987766, 0.9120000433176756, 0.0, 0.0, 0.0, 0.0, 0.0, 1.7564856377199817E9, 0.0, 2025-08-29 13:40:37.719
51.0, 55.03075789799914, 92.53634460363537, -1619.2308247154579, -1133.35611212207, 0.0, 0.04800000227987766, 0.9120000433176756, 0.0, 0.0, 0.0, 0.0, 0.0, 1.7564856377199817E9, 0.0, 2025-08-29 13:40:37.719
52.0, 139.58241609623656, 161.86287008225918, -1838.7741718143225, -1346.7772429934703, 0.0, 0.04800000227987766, 0.9120000433176756, 0.0, 0.0, 0.0, 0.0, 0.0, 1.75648563773352E9, 0.0, 2025-08-29 13:40:37.733
52.0, 46.55240469845012, -7.165648315101862, -1637.3020213013515, -1163.8998750601895, 0.0, 0.04800000227987766, 0.9120000433176756, 0.0, 0.0, 0.0, 0.0, 0.0, 1.75648563773352E9, 0.0, 2025-08-29 13:40:37.733
53.0, -156.06602515093982, 30.199692142196, -1525.374295427464, -1076.9546808903106, 0.0, 0.04800000227987766, 0.9120000433176756, 0.0, 0.0, 0.0, 0.0, 0.0, 1.7564856377494218E9, 0.0, 2025-08-29 13:40:37.749
53.0, -268.09659827360883, 176.06327021401376, -1295.678989898879, -1315.0591514692642, 0.0, 0.04800000227987766, 0.9120000433176756, 0.0, 0.0, 0.0, 0.0, 0.0, 1.7564856377494218E9, 0.0, 2025-08-29 13:40:37.749
54.0, -282.76822579978034, 52.25014228094369, -1256.170686766971, -1247.7446921668015, 0.0, 0.04800000227987766, 0.9120000433176756, 0.0, 0.0, 0.0, 0.0, 0.0, 1.7564856377500412E9, 0.0, 2025-08-29 13:40:37.750
54.0, -370.17716756416485, -17.420453993603587, -1024.3866471131332, -1038.4224916468374, 0.0, 0.04800000227987766, 0.9120000433176756, 0.0, 0.0, 0.0, 0.0, 0.0, 1.7564856377500412E9, 0.0, 2025-08-29 13:40:37.750
55.0, -301.5612230771221, 159.32721791230142, -1214.0519334659912, -1239.0045459703542, 0.0, 0.04800000227987766, 0.9120000433176756, 0.0, 0.0, 0.0, 0.0, 0.0, 1.7564856377635908E9, 0.0, 2025-08-29 13:40:37.763
55.0, -62.172096863389015, 127.15659849345684, -1346.9417985915206, -1368.7641148329712, 0.0, 0.04800000227987766, 0.9120000433176756, 0.0, 0.0, 0.0, 0.0, 0.0, 1.7564856377635908E9, 0.0, 2025-08-29 13:40:37.763
56.0, -16.902477849740535, -54.04529425967485, -1583.312825541012, -1576.379051023163, 0.0, 0.04800000227987766, 0.9120000433176756, 0.0, 0.0, 0.0, 0.0, 0.0, 1.7564856377792675E9, 0.0, 2025-08-29 13:40:37.779
56.0, 45.54637161036953, 87.46504026371986, -1592.4082622332498, -1575.6348109319806, 0.0, 0.04800000227987766, 0.9120000433176756, 0.0, 0.0, 0.0, 0.0, 0.0, 1.7564856377792675E9, 0.0, 2025-08-29 13:40:37.779
57.0, 146.15342031838372, 166.39936872851104, -1803.671470830217, -1808.2079694764689, 0.0, 0.04800000227987766, 0.9120000433176756, 0.0, 0.0, 0.0, 0.0, 0.0, 1.756485637780016E9, 0.0, 2025-08-29 13:40:37.780
57.0, 40.92385526513681, -21.67272024322301, -1638.9550570817664, -1632.71316405572, 0.0, 0.04800000227987766, 0.9120000433176756, 0.0, 0.0, 0.0, 0.0, 0.0, 1.756485637780016E9, 0.0, 2025-08-29 13:40:37.780
58.0, -170.20658688340336, 24.11861481424421, -1551.5236759176478, -1516.4920330327004, 0.0, 0.04800000227987766, 0.9120000433176756, 0.0, 0.0, 0.0, 0.0, 0.0, 1.756485637793538E9, 0.0, 2025-08-29 13:40:37.793
58.0, -260.01093456940725, 179.06640987843275, -1772.7088390970603, -1751.413848749362, 0.0, 0.04800000227987766, 0.9120000433176756, 0.0, 0.0, 0.0, 0.0, 0.0, 1.756485637793538E9, 0.0, 2025-08-29 13:40:37.793
59.0, -271.6382835316472, 51.173051093705, -1733.9933947557583, -1717.30596115347, 0.0, 0.04800000227987766, 0.9120000433176756, 0.0, 0.0, 0.0, 0.0, 0.0, 1.7564856378092692E9, 0.0, 2025-08-29 13:40:37.809
59.0, -367.84346999181435, -28.59153516124934, -1525.7894243225455, -1506.8991896463558, 0.0, 0.04800000227987766, 0.9120000433176756, 0.0, 0.0, 0.0, 0.0, 0.0, 1.7564856378092692E9, 0.0, 2025-08-29 13:40:37.809
60.0, -288.81190412817523, 159.8882029056549, -1671.9073155913502, -1674.1923944642767, 0.0, 0.04800000227987766, 0.944000044837594, 0.0, 0.0, 0.0, 0.0, 0.0, 1.756485637810011E9, 0.0, 2025-08-29 13:40:37.810
60.0, -523.4906263477169, 130.68332415167242, -1796.7863150117919, -1779.466838316992, 0.0, 0.04800000227987766, 0.944000044837594, 0.0, 0.0, 0.0, 0.0, 0.0, 1.756485637810011E9, 0.0, 2025-08-29 13:40:37.810
61.0, -488.0419846177101, -45.78385525755584, -1606.3319097682834, -1561.8271002955735, 0.0, 0.04800000227987766, 0.944000044837594, 0.0, 0.0, 0.0, 0.0, 0.0, 1.7564856378236144E9, 0.0, 2025-08-29 13:40:37.823
61.0, -447.0190220037475, 90.57289712689817, -1635.3797127241269, -1603.0482776071876, 0.0, 0.04800000227987766, 0.944000044837594, 0.0, 0.0, 0.0, 0.0, 0.0, 1.7564856378236144E9, 0.0, 2025-08-29 13:40:37.823
62.0, -351.96572472993284, 166.86311632301658, -1827.2889390503988, -1806.07248660177, 0.0, 0.04800000227987766, 0.944000044837594, 0.0, 0.0, 0.0, 0.0, 0.0, 1.756485637839698E9, 0.0, 2025-08-29 13:40:37.839
62.0, -448.810434082523, -22.96672562789172, -1667.0155264493078, -1668.171155535616, 0.0, 0.04800000227987766, 0.944000044837594, 0.0, 0.0, 0.0, 0.0, 0.0, 1.756485637839698E9, 0.0, 2025-08-29 13:40:37.839
63.0, -677.7727192197926, 10.004232381470501, -1559.1942107267678, -1562.37686558906, 0.0, 0.04800000227987766, 0.944000044837594, 0.0, 0.0, 0.0, 0.0, 0.0, 1.7564856378542435E9, 0.0, 2025-08-29 13:40:37.854
63.0, -765.2097102338448, 172.36450915783644, -1780.5289699044079, -1784.7887159539387, 0.0, 0.04800000227987766, 0.944000044837594, 0.0, 0.0, 0.0, 0.0, 0.0, 1.7564856378542435E9, 0.0, 2025-08-29 13:40:37.854
64.0, -745.5210069171153, 57.1381915230304, -1738.8253454985097, -1740.31756558083, 0.0, 0.04800000227987766, 0.944000044837594, 0.0, 0.0, 0.0, 0.0, 0.0, 1.7564856378549905E9, 0.0, 2025-08-29 13:40:37.854
64.0, -863.5223303190432, -31.273043429479003, -1553.2440298972651, -1542.1926255282015, 0.0, 0.04800000227987766, 0.944000044837594, 0.0, 0.0, 0.0, 0.0, 0.0, 1.7564856378549905E9, 0.0, 2025-08-29 13:40:37.854
65.0, -791.0991676771082, 149.79047302529216, -1716.7561958599836, -1696.1605668039992, 0.0, 0.04800000227987766, 0.944000044837594, 0.0, 0.0, 0.0, 0.0, 0.0, 1.7564856378692968E9, 0.0, 2025-08-29 13:40:37.869
65.0, -1018.877774478402, 123.15490554086864, -1811.3494854392484, -1809.1990429647267, 0.0, 0.04800000227987766, 0.944000044837594, 0.0, 0.0, 0.0, 0.0, 0.0, 1.7564856378692968E9, 0.0, 2025-08-29 13:40:37.869
66.0, -980.3960738843307, -47.56030773650855, -1591.753779741004, -1576.8166193179786, 0.0, 0.04800000227987766, 0.944000044837594, 0.0, 0.0, 0.0, 0.0, 0.0, 1.7564856378700087E9, 0.0, 2025-08-29 13:40:37.870
66.0, -942.522107033059, 92.27081170678139, -1615.4460459602997, -1602.5994896125048, 0.0, 0.04800000227987766, 0.944000044837594, 0.0, 0.0, 0.0, 0.0, 0.0, 1.7564856378700087E9, 0.0, 2025-08-29 13:40:37.870
67.0, -836.7427766863257, 170.99196587409824, -1831.3317709024996, -1806.902744391933, 0.0, 0.04800000227987766, 0.944000044837594, 0.0, 0.0, 0.0, 0.0, 0.0, 1.756485637883546E9, 0.0, 2025-08-29 13:40:37.883
67.0, -943.1878092251718, -20.270257759839296, -1684.5593971414492, -1674.3232909627259, 0.0, 0.04800000227987766, 0.944000044837594, 0.0, 0.0, 0.0, 0.0, 0.0, 1.756485637883546E9, 0.0, 2025-08-29 13:40:37.883
68.0, -1170.1679473859258, 8.280138501897454, -1578.7688470948488, -1579.3597512878478, 0.0, 0.04800000227987766, 0.944000044837594, 0.0, 0.0, 0.0, 0.0, 0.0, 1.7564856378992712E9, 0.0, 2025-08-29 13:40:37.899
68.0, -1258.749347786419, 171.13782197237015, -1796.9396509099752, -1782.1969652846456, 0.0, 0.04800000227987766, 0.944000044837594, 0.0, 0.0, 0.0, 0.0, 0.0, 1.7564856378992712E9, 0.0, 2025-08-29 13:40:37.899
69.0, -1250.9049076293595, 47.19379754085094, -1754.0355186183006, -1752.9509476311505, 0.0, 0.04800000227987766, 0.944000044837594, 0.0, 0.0, 0.0, 0.0, 0.0, 1.7564856378999984E9, 0.0, 2025-08-29 13:40:37.899
69.0, -1371.4905019006692, -44.61700647138059, -1555.8208209667355, -1540.8126024445519, 0.0, 0.04800000227987766, 0.944000044837594, 0.0, 0.0, 0.0, 0.0, 0.0, 1.7564856378999984E9, 0.0, 2025-08-29 13:40:37.899
70.0, -1293.9511561193503, 145.583085575141, -1704.7698165019974, -1689.4025675840676, 0.0, 0.04800000227987766, 0.9600000455975533, 0.0, 0.0, 0.0, 0.0, 0.0, 1.7564856379135208E9, 0.0, 2025-08-29 13:40:37.913
70.0, -1513.6104401168413, 120.74640996940434, -1817.613817865029, -1808.9222903680056, 0.0, 0.04800000227987766, 0.9600000455975533, 0.0, 0.0, 0.0, 0.0, 0.0, 1.7564856379135208E9, 0.0, 2025-08-29 13:40:37.913
71.0, -1477.1707248985767, -49.755629010498524, -1596.495972884819, -1591.6004438428208, 0.0, 0.04800000227987766, 0.9600000455975533, 0.0, 0.0, 0.0, 0.0, 0.0, 1.7564856379292855E9, 0.0, 2025-08-29 13:40:37.929
71.0, -1446.944853456691, 87.62211606185883, -1610.9170271139592, -1614.1931794751436, 0.0, 0.04800000227987766, 0.9600000455975533, 0.0, 0.0, 0.0, 0.0, 0.0, 1.7564856379292855E9, 0.0, 2025-08-29 13:40:37.929
72.0, -1329.7550883451477, 166.09643683210015, -1814.030993707478, -1824.7719863802195, 0.0, 0.04800000227987766, 0.9600000455975533, 0.0, 0.0, 0.0, 0.0, 0.0, 1.756485637930037E9, 0.0, 2025-08-29 13:40:37.930
72.0, -1419.4304094826803, -8.964540193788707, -1660.7511940235272, -1662.6174041014165, 0.0, 0.04800000227987766, 0.9600000455975533, 0.0, 0.0, 0.0, 0.0, 0.0, 1.756485637930037E9, 0.0, 2025-08-29 13:40:37.930
73.0, -1662.9558650474064, 17.009064998477697, -1575.8180660298094, -1553.9733103886247, 0.0, 0.04800000227987766, 0.9600000455975533, 0.0, 0.0, 0.0, 0.0, 0.0, 1.756485637943546E9, 0.0, 2025-08-29 13:40:37.943
73.0, -1743.0626521483064, 178.66250068321824, -1782.3764804825187, -1772.30119000189, 0.0, 0.04800000227987766, 0.9600000455975533, 0.0, 0.0, 0.0, 0.0, 0.0, 1.756485637943546E9, 0.0, 2025-08-29 13:40:37.943
74.0, -1737.2826367667876, 53.66008456423879, -1756.2906782915816, -1749.2596663748845, 0.0, 0.04800000227987766, 0.9600000455975533, 0.0, 0.0, 0.0, 0.0, 0.0, 1.7564856379592483E9, 0.0, 2025-08-29 13:40:37.959
74.0, -1867.9584811185487, -34.2013850947842, -1556.4865231588483, -1543.94663860742, 0.0, 0.04800000227987766, 0.9600000455975533, 0.0, 0.0, 0.0, 0.0, 0.0, 1.7564856379592483E9, 0.0, 2025-08-29 13:40:37.959
75.0, -1780.201728658285, 151.1779759088531, -1682.0835833707824, -1685.5280312299728, 0.0, 0.04800000227987766, 0.9600000455975533, 0.0, 0.0, 0.0, 0.0, 0.0, 1.7564856379600122E9, 0.0, 2025-08-29 13:40:37.960
75.0, -1988.559034989681, 127.0967600941658, -1802.392425045371, -1799.5388813791797, 0.0, 0.04800000227987766, 0.9600000455975533, 0.0, 0.0, 0.0, 0.0, 0.0, 1.7564856379600122E9, 0.0, 2025-08-29 13:40:37.960
76.0, -1962.7593351453543, -40.899545915424824, -1582.228254553862, -1591.29751194641, 0.0, 0.04800000227987766, 0.9600000455975533, 0.0, 0.0, 0.0, 0.0, 0.0, 1.7564856379735672E9, 0.0, 2025-08-29 13:40:37.973
76.0, -1943.8354413695633, 82.54333192203194, -1616.8971271431074, -1622.907146371901, 0.0, 0.04800000227987766, 0.9600000455975533, 0.0, 0.0, 0.0, 0.0, 0.0, 1.7564856379735672E9, 0.0, 2025-08-29 13:40:37.973
77.0, -1820.7216747282073, 167.55125791486353, -1836.706007138826, -1829.7273538215086, 0.0, 0.04800000227987766, 0.9600000455975533, 0.0, 0.0, 0.0, 0.0, 0.0, 1.7564856379892497E9, 0.0, 2025-08-29 13:40:37.989
77.0, -1916.3209973955527, -16.51913810428232, -1696.8412285959348, -1669.6222367184237, 0.0, 0.04800000227987766, 0.9600000455975533, 0.0, 0.0, 0.0, 0.0, 0.0, 1.7564856379892497E9, 0.0, 2025-08-29 13:40:37.989
78.0, -1674.2634525634348, 6.563524422235787, -1579.4008901873603, -1553.932171489112, 0.0, 0.04800000227987766, 0.9600000455975533, 0.0, 0.0, 0.0, 0.0, 0.0, 1.7564856379900157E9, 0.0, 2025-08-29 13:40:37.990
78.0, -1738.9394124471582, 177.69760649465024, -1774.7657840726897, -1771.2091392148286, 0.0, 0.04800000227987766, 0.9600000455975533, 0.0, 0.0, 0.0, 0.0, 0.0, 1.7564856379900157E9, 0.0, 2025-08-29 13:40:37.990
79.0, -1739.6275540390052, 44.69928427040577, -1759.046984558925, -1763.8789353016764, 0.0, 0.04800000227987766, 0.9600000455975533, 0.0, 0.0, 0.0, 0.0, 0.0, 1.7564856380035949E9, 0.0, 2025-08-29 13:40:38.003
79.0, -1882.3084772485308, -50.544747901149094, -1548.9842838477343, -1549.6125870402902, 0.0, 0.04800000227987766, 0.9600000455975533, 0.0, 0.0, 0.0, 0.0, 0.0, 1.7564856380035949E9, 0.0, 2025-08-29 13:40:38.003
80.0, -1798.4823596416973, 133.77996131498367, -1700.9476387472823, -1694.765584120527, 0.0, 0.04800000227987766, 0.9600000455975533, 0.0, 0.0, 0.0, 0.0, 0.0, 1.756485638019241E9, 0.0, 2025-08-29 13:40:38.019
80.0, -1981.7785963700153, 123.2820621393621, -1804.5540872197598, -1825.647122969851, 0.0, 0.04800000227987766, 0.9600000455975533, 0.0, 0.0, 0.0, 0.0, 0.0, 1.756485638019241E9, 0.0, 2025-08-29 13:40:38.019
81.0, -1971.458342442289, -55.1747440462932, -1599.570170648396, -1607.7530717514455, 0.0, 0.04800000227987766, 0.9600000455975533, 0.0, 0.0, 0.0, 0.0, 0.0, 1.756485638020038E9, 0.0, 2025-08-29 13:40:38.020
81.0, -1960.5340946717188, 67.16860320419073, -1626.501190229319, -1612.1661536991596, 0.0, 0.04800000227987766, 0.9600000455975533, 0.0, 0.0, 0.0, 0.0, 0.0, 1.756485638020038E9, 0.0, 2025-08-29 13:40:38.020
82.0, -1802.3849452454597, 170.21406668331474, -1810.522967549041, -1802.2054300475866, 0.0, 0.04800000227987766, 0.9600000455975533, 0.0, 0.0, 0.0, 0.0, 0.0, 1.7564856380336256E9, 0.0, 2025-08-29 13:40:38.033
82.0, -1905.1312167281285, -13.478599440306425, -1670.0448454134166, -1665.758920064196, 0.0, 0.04800000227987766, 0.9600000455975533, 0.0, 0.0, 0.0, 0.0, 0.0, 1.7564856380336256E9, 0.0, 2025-08-29 13:40:38.033
83.0, -1677.012279030867, 5.463993835262954, -1545.7941491855308, -1560.4508171118796, 0.0, 0.04800000227987766, 0.9600000455975533, 0.0, 0.0, 0.0, 0.0, 0.0, 1.756485638049244E9, 0.0, 2025-08-29 13:40:38.049
83.0, -1739.6312939389609, 177.69386659469455, -1784.0556955626234, -1765.5394508820027, 0.0, 0.04800000227987766, 0.9600000455975533, 0.0, 0.0, 0.0, 0.0, 0.0, 1.756485638049244E9, 0.0, 2025-08-29 13:40:38.049
84.0, -1703.0906014218926, 65.4033704251051, -1761.1637679338455, -1744.0462458366528, 0.0, 0.04800000227987766, 0.9600000455975533, 0.0, 0.0, 0.0, 0.0, 0.0, 1.7564856380499988E9, 0.0, 2025-08-29 13:40:38.049
84.0, -1876.154471871443, -42.6872180942446, -1543.8456613086164, -1541.3324485383928, 0.0, 0.04800000227987766, 0.9600000455975533, 0.0, 0.0, 0.0, 0.0, 0.0, 1.7564856380499988E9, 0.0, 2025-08-29 13:40:38.049
85.0, -1798.4356108922511, 137.587179469876, -1680.5240450892597, -1674.0128792664036, 0.0, 0.04800000227987766, 0.9600000455975533, 0.0, 0.0, 0.0, 0.0, 0.0, 1.7564856380635667E9, 0.0, 2025-08-29 13:40:38.063
85.0, -1956.2780885221437, 132.42611753102392, -1815.2090621935204, -1803.8023673286662, 0.0, 0.04800000227987766, 0.9600000455975533, 0.0, 0.0, 0.0, 0.0, 0.0, 1.7564856380635667E9, 0.0, 2025-08-29 13:40:38.063
86.0, -1960.5378345716745, -47.45185063779354, -1588.3392510814592, -1601.802890921943, 0.0, 0.04800000227987766, 0.9600000455975533, 0.0, 0.0, 0.0, 0.0, 0.0, 1.756485638079245E9, 0.0, 2025-08-29 13:40:38.079
86.0, -1979.792709493544, 65.72874172125012, -1599.5028524491936, -1604.6302552884445, 0.0, 0.04800000227987766, 0.9600000455975533, 0.0, 0.0, 0.0, 0.0, 0.0, 1.756485638079245E9, 0.0, 2025-08-29 13:40:38.079
87.0, -1795.239866380114, 171.8932817634195, -1803.4134177332744, -1811.787053734064, 0.0, 0.04800000227987766, 0.9600000455975533, 0.0, 0.0, 0.0, 0.0, 0.0, 1.7564856380799747E9, 0.0, 2025-08-29 13:40:38.079
87.0, -1889.747138260398, -7.752812608145177, -1671.0508785014972, -1667.954241338186, 0.0, 0.04800000227987766, 0.9600000455975533, 0.0, 0.0, 0.0, 0.0, 0.0, 1.7564856380799747E9, 0.0, 2025-08-29 13:40:38.079
88.0, -1711.009839578066, -8.83364369533956, -1560.854726307094, -1549.9491780363023, 0.0, 0.04800000227987766, 0.9600000455975533, 0.0, 0.0, 0.0, 0.0, 0.0, 1.7564856380935698E9, 0.0, 2025-08-29 13:40:38.093
88.0, -1752.932248131372, 165.55041143856943, -1771.5008514113724, -1774.5787890749052, 0.0, 0.04800000227987766, 0.9600000455975533, 0.0, 0.0, 0.0, 0.0, 0.0, 1.7564856380935698E9, 0.0, 2025-08-29 13:40:38.093
89.0, -1700.1753494064324, 67.76698719710112, -1770.625714821741, -1774.978958370164, 0.0, 0.04800000227987766, 0.9600000455975533, 0.0, 0.0, 0.0, 0.0, 0.0, 1.7564856381093044E9, 0.0, 2025-08-29 13:40:38.109
89.0, -1896.9875845746137, -50.61954590026289, -1554.392179183662, -1545.0611287942156, 0.0, 0.04800000227987766, 0.9600000455975533, 0.0, 0.0, 0.0, 0.0, 0.0, 1.7564856381093044E9, 0.0, 2025-08-29 13:40:38.109
90.0, -1805.8985812538303, 118.19579819962382, -1679.761105498299, -1686.9342336133122, 0.0, 0.04800000227987766, 0.9760000463575125, 0.0, 0.0, 0.0, 0.0, 0.0, 1.756485638110031E9, 0.0, 2025-08-29 13:40:38.110
90.0, -1959.784244730603, 124.74810292199254, -1837.3717093309388, -1844.3316631484777, 0.0, 0.04800000227987766, 0.9760000463575125, 0.0, 0.0, 0.0, 0.0, 0.0, 1.756485638110031E9, 0.0, 2025-08-29 13:40:38.110
91.0, -1982.7771496581845, -65.72874172125012, -1635.3273541247472, -1649.9578427514061, 0.0, 0.04800000227987766, 0.9760000463575125, 0.0, 0.0, 0.0, 0.0, 0.0, 1.7564856381236036E9, 0.0, 2025-08-29 13:40:38.123
91.0, -1998.2248064251617, 48.42796452622861, -1641.8572194473818, -1658.4997742502019, 0.0, 0.04800000227987766, 0.9760000463575125, 0.0, 0.0, 0.0, 0.0, 0.0, 1.7564856381236036E9, 0.0, 2025-08-29 13:40:38.123
92.0, -1805.3095470108092, 154.8505576653406, -1853.217665443197, -1897.1801894223318, 0.0, 0.04800000227987766, 0.9760000463575125, 0.0, 0.0, 0.0, 0.0, 0.0, 1.7564856381392264E9, 0.0, 2025-08-29 13:40:38.139
92.0, -1901.0696853762493, -22.51045783329755, -1739.1694162944332, -1779.055449321866, 0.0, 0.04800000227987766, 0.9760000463575125, 0.0, 0.0, 0.0, 0.0, 0.0, 1.7564856381392264E9, 0.0, 2025-08-29 13:40:38.139
93.0, -1739.0833985954523, -32.09956131968647, -1606.0289778718725, -1648.4357034694403, 0.0, 0.04800000227987766, 0.9760000463575125, 0.0, 0.0, 0.0, 0.0, 0.0, 1.7564856381399984E9, 0.0, 2025-08-29 13:40:38.139
93.0, -1769.1278848894872, 155.10113096237183, -1827.1580425519496, -1871.0345488321036, 0.0, 0.04800000227987766, 0.9760000463575125, 0.0, 0.0, 0.0, 0.0, 0.0, 1.7564856381399984E9, 0.0, 2025-08-29 13:40:38.139
94.0, -1707.9001127649099, 55.99752203654498, -1835.0342718586326, -1879.5129020316526, 0.0, 0.04800000227987766, 0.9760000463575125, 0.0, 0.0, 0.0, 0.0, 0.0, 1.7564856381535463E9, 0.0, 2025-08-29 13:40:38.153
94.0, -1938.6332405311987, -71.42086945381016, -1622.7912094732746, -1681.3131639799103, 0.0, 0.04800000227987766, 0.9760000463575125, 0.0, 0.0, 0.0, 0.0, 0.0, 1.7564856381535463E9, 0.0, 2025-08-29 13:40:38.153
95.0, -1848.6512475972995, 105.70453234761953, -1764.5969960931689, -1820.134510435164, 0.0, 0.04800000227987766, 0.9760000463575125, 0.0, 0.0, 0.0, 0.0, 0.0, 1.7564856381692429E9, 0.0, 2025-08-29 13:40:38.169
95.0, -1979.0727787520736, 109.9792379969731, -1917.17369458545, -1968.1335713816807, 0.0, 0.04800000227987766, 0.9760000463575125, 0.0, 0.0, 0.0, 0.0, 0.0, 1.7564856381692429E9, 0.0, 2025-08-29 13:40:38.169
96.0, -2014.3400353342295, -83.08561741560698, -1706.5313093811274, -1753.5306321242824, 0.0, 0.04800000227987766, 0.9760000463575125, 0.0, 0.0, 0.0, 0.0, 0.0, 1.7564856381699975E9, 0.0, 2025-08-29 13:40:38.169
96.0, -2043.3074304410256, 20.393674458377063, -1695.6631601098925, -1760.2437525447458, 0.0, 0.04800000227987766, 0.9760000463575125, 0.0, 0.0, 0.0, 0.0, 0.0, 1.7564856381699975E9, 0.0, 2025-08-29 13:40:38.169
97.0, -1833.364406528417, 135.1338050989434, -1457.2950265840627, -1997.7535790307447, 0.0, 0.04800000227987766, 0.9760000463575125, 0.0, 0.0, 0.0, 0.0, 0.0, 1.7564856381835425E9, 0.0, 2025-08-29 13:40:38.183
97.0, -1927.4640293135308, -37.30924195796251, -1325.205500049051, -1864.9908705037087, 0.0, 0.04800000227987766, 0.9760000463575125, 0.0, 0.0, 0.0, 0.0, 0.0, 1.7564856381835425E9, 0.0, 2025-08-29 13:40:38.183
98.0, -1781.3049991452135, -41.688664806075394, -1169.9622528883629, -1726.038627550006, 0.0, 0.04800000227987766, 0.9760000463575125, 0.0, 0.0, 0.0, 0.0, 0.0, 1.7564856381992188E9, 0.0, 2025-08-29 13:40:38.199
98.0, -1793.2296701539308, 141.41683702450246, -1387.3663772125728, -1939.5644756201655, 0.0, 0.04800000227987766, 0.9760000463575125, 0.0, 0.0, 0.0, 0.0, 0.0, 1.7564856381992188E9, 0.0, 2025-08-29 13:40:38.199
99.0, -1710.456334384624, 49.92392450850457, -1398.7655922775157, -1944.5946410605684, 0.0, 0.04800000227987766, 0.9760000463575125, 0.0, 0.0, 0.0, 0.0, 0.0, 1.7564856382000282E9, 0.0, 2025-08-29 13:40:38.200
99.0, -1485.6976967975497, -88.02602525707334, -1179.6074548740871, -1731.0276540908962, 0.0, 0.04800000227987766, 0.9760000463575125, 0.0, 0.0, 0.0, 0.0, 0.0, 1.7564856382000282E9, 0.0, 2025-08-29 13:40:38.200
100.0, -1384.5408827960491, 96.43332035746425, -1314.5729644750245, -1841.9568266766146, 0.0, 0.04800000227987766, 0.9760000463575125, 0.0, 0.0, 0.0, 0.0, 0.0, 1.7564856382142727E9, 0.0, 2025-08-29 13:40:38.214
100.0, -1485.6490780981258, 120.43225837312639, -1432.0806210828014, -1956.3790658209473, 0.0, 0.04800000227987766, 0.9760000463575125, 0.0, 0.0, 0.0, 0.0, 0.0, 1.7564856382142727E9, 0.0, 2025-08-29 13:40:38.214
0.0, -553.2620999449864, -81.17452853824943, -242.43527472764254, -286.2949514579959, 0.0, 0.04800000227987766, 0.9760000463575125, 0.0, 0.0, 0.0, 0.0, 0.0, 1.75648563821505E9, 0.0, 2025-08-29 13:40:38.215
1.0, -589.484900965821, 29.3095959527418, -254.10376258939505, -281.12640971923247, 0.0, 0.04800000227987766, 0.9760000463575125, 0.0, 0.0, 0.0, 0.0, 0.0, 1.7564856382285984E9, 0.0, 2025-08-29 13:40:38.228
1.0, -350.16870280122384, 153.01800668705255, -470.19892192911357, -492.3634390165098, 0.0, 0.04800000227987766, 0.9760000463575125, 0.0, 0.0, 0.0, 0.0, 0.0, 1.7564856382285984E9, 0.0, 2025-08-29 13:40:38.228
2.0, -446.39632866112515, -30.483924538828433, -333.9057478439063, -367.8995684911497, 0.0, 0.04800000227987766, 0.9760000463575125, 0.0, 0.0, 0.0, 0.0, 0.0, 1.7564856382442853E9, 0.0, 2025-08-29 13:40:38.244
2.0, -314.92014571884647, -43.03128889016807, -175.6070024194196, -207.16614819550887, 0.0, 0.04800000227987766, 0.9760000463575125, 0.0, 0.0, 0.0, 0.0, 0.0, 1.7564856382442853E9, 0.0, 2025-08-29 13:40:38.244
3.0, -313.5850014346652, 150.1794226206839, -389.20390858873725, -432.39788312697783, 0.0, 0.04800000227987766, 0.9760000463575125, 0.0, 0.0, 0.0, 0.0, 0.0, 1.756485638244982E9, 0.0, 2025-08-29 13:40:38.244
3.0, -236.09240440279245, 48.072674030438066, -432.15291967988014, -464.1309342510067, 0.0, 0.04800000227987766, 0.9760000463575125, 0.0, 0.0, 0.0, 0.0, 0.0, 1.756485638244982E9, 0.0, 2025-08-29 13:40:38.244
4.0, -12.167764505837113, -83.20903411414474, -189.03324326034635, -244.96531704766676, 0.0, 0.04800000227987766, 0.9760000463575125, 0.0, 0.0, 0.0, 0.0, 0.0, 1.7564856382585804E9, 0.0, 2025-08-29 13:40:38.258
4.0, 88.36074630310759, 102.39472088683397, -307.93962245155126, -366.13807561201975, 0.0, 0.04800000227987766, 0.9760000463575125, 0.0, 0.0, 0.0, 0.0, 0.0, 1.7564856382585804E9, 0.0, 2025-08-29 13:40:38.258
5.0, -0.6114736427552998, 114.22776434663683, -478.4603609312326, -501.9525425028987, 0.0, 0.04800000227987766, 0.9760000463575125, 0.0, 0.0, 0.0, 0.0, 0.0, 1.75648563827425E9, 0.0, 2025-08-29 13:40:38.274
5.0, -62.22632541274652, -86.75819917209446, -264.1603535702452, -280.2250938299112, 0.0, 0.04800000227987766, 0.9760000463575125, 0.0, 0.0, 0.0, 0.0, 0.0, 1.75648563827425E9, 0.0, 2025-08-29 13:40:38.274
6.0, -111.88284707441926, 6.627102721482515, -256.80023045744747, -279.76134623540565, 0.0, 0.04800000227987766, 0.9760000463575125, 0.0, 0.0, 0.0, 0.0, 0.0, 1.756485638275038E9, 0.0, 2025-08-29 13:40:38.275
6.0, -340.7067559133284, 142.40791051276028, -481.4784601954743, -511.7398606869392, 0.0, 0.04800000227987766, 0.9760000463575125, 0.0, 0.0, 0.0, 0.0, 0.0, 1.756485638275038E9, 0.0, 2025-08-29 13:40:38.275
7.0, -432.9252090207301, -37.33916115760803, -342.9824850363657, -381.81199632631615, 0.0, 0.04800000227987766, 0.9760000463575125, 0.0, 0.0, 0.0, 0.0, 0.0, 1.7564856382885704E9, 0.0, 2025-08-29 13:40:38.288
7.0, -324.2811153079383, -60.42182368412614, -193.32664840947837, -222.4548592143692, 0.0, 0.04800000227987766, 0.9760000463575125, 0.0, 0.0, 0.0, 0.0, 0.0, 1.7564856382885704E9, 0.0, 2025-08-29 13:40:38.288
8.0, -311.6888721571304, 139.9171371422708, -402.24119983427227, -436.69128827610984, 0.0, 0.04800000227987766, 0.9760000463575125, 0.0, 0.0, 0.0, 0.0, 0.0, 1.7564856383042188E9, 0.0, 2025-08-29 13:40:38.304
8.0, -215.20880305022, 62.09355896431953, -406.87493587937206, -451.84162299660966, 0.0, 0.04800000227987766, 0.9760000463575125, 0.0, 0.0, 0.0, 0.0, 0.0, 1.7564856383042188E9, 0.0, 2025-08-29 13:40:38.304
9.0, -8.495182749349624, -78.55285866931081, -191.00043063703924, -228.07966874772683, 0.0, 0.04800000227987766, 0.9760000463575125, 0.0, 0.0, 0.0, 0.0, 0.0, 1.7564856383049767E9, 0.0, 2025-08-29 13:40:38.304
9.0, 90.948757072445, 116.69983821734786, -308.4781680451706, -342.4420694927685, 0.0, 0.04800000227987766, 0.9760000463575125, 0.0, 0.0, 0.0, 0.0, 0.0, 1.7564856383049767E9, 0.0, 2025-08-29 13:40:38.304
10.0, 9.04120814288035, 123.14742574095726, -489.9455936951563, -511.0853781946935, 0.0, 0.04800000227987766, 0.9760000463575125, 0.0, 0.0, 0.0, 0.0, 0.0, 1.7564856383186014E9, 0.0, 2025-08-29 13:40:38.318
10.0, -57.08022307371721, -94.33523648232222, -722.9694101843052, -280.71876062406227, 0.0, 0.04800000227987766, 0.9760000463575125, 0.0, 0.0, 0.0, 0.0, 0.0, 1.7564856383186014E9, 0.0, 2025-08-29 13:40:38.318
11.0, -107.44358582701534, 20.91726045217365, -722.621599488426, -278.3065251526423, 0.0, 0.04800000227987766, 0.9760000463575125, 0.0, 0.0, 0.0, 0.0, 0.0, 1.7564856383342364E9, 0.0, 2025-08-29 13:40:38.334
11.0, -332.22840271377936, 145.4783683763817, -479.4402147196233, -517.0841777236201, 0.0, 0.04800000227987766, 0.9760000463575125, 0.0, 0.0, 0.0, 0.0, 0.0, 1.7564856383342364E9, 0.0, 2025-08-29 13:40:38.334
12.0, -437.9404148613103, -29.519030350260437, -351.81612873170525, -391.5020771115087, 0.0, 0.04800000227987766, 0.9760000463575125, 0.0, 0.0, 0.0, 0.0, 0.0, 1.756485638335029E9, 0.0, 2025-08-29 13:40:38.335
12.0, -357.46150771481916, -57.54958051815629, -217.4340435238555, -233.58854138245806, 0.0, 0.04800000227987766, 0.9760000463575125, 0.0, 0.0, 0.0, 0.0, 0.0, 1.756485638335029E9, 0.0, 2025-08-29 13:40:38.335
13.0, -317.48197718849406, 130.6908039515838, -413.0195915065706, -447.604316346813, 0.0, 0.04800000227987766, 0.9760000463575125, 0.0, 0.0, 0.0, 0.0, 0.0, 1.7564856383486016E9, 0.0, 2025-08-29 13:40:38.348
13.0, -219.1730970032513, 42.55632159579545, -434.9092259472236, -476.8017153008841, 0.0, 0.04800000227987766, 0.9760000463575125, 0.0, 0.0, 0.0, 0.0, 0.0, 1.7564856383486016E9, 0.0, 2025-08-29 13:40:38.348
14.0, -20.604978805873543, -93.20578669570386, -672.0244929878972, -714.2049546381459, 0.0, 0.04800000227987766, 0.9760000463575125, 0.0, 0.0, 0.0, 0.0, 0.0, 1.7564856383642187E9, 0.0, 2025-08-29 13:40:38.364
14.0, 87.43325111409649, 98.07887633796781, -789.3975131972693, -830.7290175575763, 0.0, 0.04800000227987766, 0.9760000463575125, 0.0, 0.0, 0.0, 0.0, 0.0, 1.7564856383642187E9, 0.0, 2025-08-29 13:40:38.364
15.0, 22.418830284383148, 120.26770277507603, -950.4151658895425, -993.8148349253461, 0.0, 0.04800000227987766, 0.9760000463575125, 0.0, 0.0, 0.0, 0.0, 0.0, 1.7564856383650126E9, 0.0, 2025-08-29 13:40:38.365
15.0, -73.2365908822976, -92.19975360762328, -756.5387521865778, -777.6560972863808, 0.0, 0.04800000227987766, 0.9760000463575125, 0.0, 0.0, 0.0, 0.0, 0.0, 1.7564856383650126E9, 0.0, 2025-08-29 13:40:38.365
16.0, -120.9820236666128, 8.41851480025798, -732.270541374106, -751.4169591972604, 0.0, 0.04800000227987766, 0.9760000463575125, 0.0, 0.0, 0.0, 0.0, 0.0, 1.7564856383785527E9, 0.0, 2025-08-29 13:40:38.378
16.0, -333.79168089525774, 150.63943031523377, -957.4835768057965, -981.9817914655432, 0.0, 0.04800000227987766, 0.9760000463575125, 0.0, 0.0, 0.0, 0.0, 0.0, 1.7564856383785527E9, 0.0, 2025-08-29 13:40:38.378
17.0, -444.29076498607174, -43.48755668476224, -836.3706566407345, -876.4679940156639, 0.0, 0.04800000227987766, 0.9760000463575125, 0.0, 0.0, 0.0, 0.0, 0.0, 1.7564856383942504E9, 0.0, 2025-08-29 13:40:38.394
17.0, -346.9187297397293, -63.23796835076064, -661.3470786144026, -713.8197449427098, 0.0, 0.04800000227987766, 0.9760000463575125, 0.0, 0.0, 0.0, 0.0, 0.0, 1.7564856383942504E9, 0.0, 2025-08-29 13:40:38.394
18.0, -311.3223619614728, 144.7303883852437, -877.6628920515068, -927.397951612249, 0.0, 0.04800000227987766, 0.9760000463575125, 0.0, 0.0, 0.0, 0.0, 0.0, 1.7564856383950064E9, 0.0, 2025-08-29 13:40:38.395
18.0, -208.04689463507384, 58.79870710335672, -897.4694022168405, -940.0799523619935, 0.0, 0.04800000227987766, 0.9760000463575125, 0.0, 0.0, 0.0, 0.0, 0.0, 1.7564856383950064E9, 0.0, 2025-08-29 13:40:38.395
19.0, -40.13847627444193, -109.79972279909998, -676.3403375367634, -706.8261320255697, 0.0, 0.04800000227987766, 0.9760000463575125, 0.0, 0.0, 0.0, 0.0, 0.0, 1.756485638408568E9, 0.0, 2025-08-29 13:40:38.408
19.0, 72.45495179155841, 88.99465934559703, -803.0855470350944, -818.817436198704, 0.0, 0.04800000227987766, 0.9760000463575125, 0.0, 0.0, 0.0, 0.0, 0.0, 1.756485638408568E9, 0.0, 2025-08-29 13:40:38.408
20.0, 22.75542128039524, 118.868980191648, -980.6185979316942, -985.385100425221, 0.0, 0.04800000227987766, 0.9760000463575125, 0.0, 0.0, 0.0, 0.0, 0.0, 1.7564856384242947E9, 0.0, 2025-08-29 13:40:38.424
20.0, -79.87491330364719, -101.65048079565167, -762.3991754171439, -776.3134732022882, 0.0, 0.04800000227987766, 0.9760000463575125, 0.0, 0.0, 0.0, 0.0, 0.0, 1.7564856384242947E9, 0.0, 2025-08-29 13:40:38.424
21.0, -142.16481701564044, 5.602370133623481, -720.0635079187341, -746.3119957577437, 0.0, 0.04800000227987766, 0.9760000463575125, 0.0, 0.0, 0.0, 0.0, 0.0, 1.7564856384249902E9, 0.0, 2025-08-29 13:40:38.424
21.0, -319.30330846691504, 161.96010748110712, -934.9431997728534, -979.1768664987758, 0.0, 0.04800000227987766, 0.9760000463575125, 0.0, 0.0, 0.0, 0.0, 0.0, 1.7564856384249902E9, 0.0, 2025-08-29 13:40:38.424
22.0, -426.12981080124155, -27.589241973124444, -840.5817839908414, -861.0222071986645, 0.0, 0.04800000227987766, 0.9760000463575125, 0.0, 0.0, 0.0, 0.0, 0.0, 1.7564856384385905E9, 0.0, 2025-08-29 13:40:38.438
22.0, -355.72619413537905, -67.89414379559457, -659.3125730385073, -690.673504116945, 0.0, 0.04800000227987766, 0.9760000463575125, 0.0, 0.0, 0.0, 0.0, 0.0, 1.7564856384385905E9, 0.0, 2025-08-29 13:40:38.438
23.0, -305.66015342855826, 146.93318945914507, -876.8438539612107, -914.0203294707462, 0.0, 0.04800000227987766, 0.9760000463575125, 0.0, 0.0, 0.0, 0.0, 0.0, 1.75648563845427E9, 0.0, 2025-08-29 13:40:38.454
23.0, -201.96207740716636, 54.86059245001525, -903.4682017457671, -946.2694867886603, 0.0, 0.04800000227987766, 0.9760000463575125, 0.0, 0.0, 0.0, 0.0, 0.0, 1.75648563845427E9, 0.0, 2025-08-29 13:40:38.454
24.0, -47.81649088347331, -118.11352040059865, -691.939460251946, -716.265639513731, 0.0, 0.04800000227987766, 0.9760000463575125, 0.0, 0.0, 0.0, 0.0, 0.0, 1.756485638455016E9, 0.0, 2025-08-29 13:40:38.455
24.0, 68.98432463267818, 79.31953816022724, -798.5677478886209, -819.576635889709, 0.0, 0.04800000227987766, 0.9760000463575125, 0.0, 0.0, 0.0, 0.0, 0.0, 1.756485638455016E9, 0.0, 2025-08-29 13:40:38.455
25.0, 25.044240053277463, 110.70851848833263, -950.216951191891, -962.6278091948479, 0.0, 0.04800000227987766, 0.9760000463575125, 0.0, 0.0, 0.0, 0.0, 0.0, 1.7564856384686055E9, 0.0, 2025-08-29 13:40:38.468
25.0, -71.4975374029018, -90.87956892326474, -724.5214686659165, -742.2055856063962, 0.0, 0.04800000227987766, 0.9760000463575125, 0.0, 0.0, 0.0, 0.0, 0.0, 1.7564856384686055E9, 0.0, 2025-08-29 13:40:38.468
26.0, -143.65329719800502, 8.41851480025798, -704.4494256037287, -707.3010993199423, 0.0, 0.04800000227987766, 0.9760000463575125, 0.0, 0.0, 0.0, 0.0, 0.0, 1.7564856384842737E9, 0.0, 2025-08-29 13:40:38.484
26.0, -313.1399533399381, 166.20489393081516, -948.0291097178124, -463.6484871567227, 0.0, 0.04800000227987766, 0.9760000463575125, 0.0, 0.0, 0.0, 0.0, 0.0, 1.7564856384842737E9, 0.0, 2025-08-29 13:40:38.484
27.0, -428.97961456747726, -31.142146931029856, -838.4986597155221, -357.4091491154395, 0.0, 0.04800000227987766, 0.9760000463575125, 0.0, 0.0, 0.0, 0.0, 0.0, 1.756485638485004E9, 0.0, 2025-08-29 13:40:38.485
27.0, -354.83983784588054, -55.03636774793267, -632.8453010520898, -174.03811438800767, 0.0, 0.04800000227987766, 0.9760000463575125, 0.0, 0.0, 0.0, 0.0, 0.0, 1.756485638485004E9, 0.0, 2025-08-29 13:40:38.485
28.0, -287.2299264469184, 162.52857227437198, -833.3525573764928, -386.81972236698493, 0.0, 0.04800000227987766, 0.9760000463575125, 0.0, 0.0, 0.0, 0.0, 0.0, 1.7564856384985423E9, 0.0, 2025-08-29 13:40:38.498
28.0, -190.43944564368576, 59.64018459338695, -893.9501563585363, -435.6740354881622, 0.0, 0.04800000227987766, 0.9760000463575125, 0.0, 0.0, 0.0, 0.0, 0.0, 1.7564856384985423E9, 0.0, 2025-08-29 13:40:38.498
29.0, -61.994451615493745, -120.78754886891693, -693.2746045361273, -205.524332114961, 0.0, 0.04800000227987766, 0.9760000463575125, 0.0, 0.0, 0.0, 0.0, 0.0, 1.75648563851427E9, 0.0, 2025-08-29 13:40:38.514
29.0, 81.22875708760694, 98.42668703384697, -789.9584981906228, -300.5327505893074, 0.0, 0.04800000227987766, 0.9760000463575125, 0.0, 0.0, 0.0, 0.0, 0.0, 1.75648563851427E9, 0.0, 2025-08-29 13:40:38.514
30.0, 40.39652937138453, 130.2083568572998, -964.6567049208097, -480.0329888626002, 0.0, 0.04800000227987766, 0.9760000463575125, 0.0, 0.0, 0.0, 0.0, 0.0, 1.7564856385149941E9, 0.0, 2025-08-29 13:40:38.514
30.0, -84.80784134520218, -96.28372435923666, -728.4296641196124, -268.31725237099454, 0.0, 0.04800000227987766, 0.9760000463575125, 0.0, 0.0, 0.0, 0.0, 0.0, 1.7564856385149941E9, 0.0, 2025-08-29 13:40:38.514
31.0, -146.8883106596768, 6.335390524938703, -696.0608300031163, -234.41131937270984, 0.0, 0.06400000303983688, 0.9760000463575125, 0.0, 0.0, 0.0, 0.0, 0.0, 1.7564856385285676E9, 0.0, 2025-08-29 13:40:38.528
31.0, -308.8315885909833, 169.559584191069, -927.1305487654172, -461.14275418641046, 0.0, 0.06400000303983688, 0.9760000463575125, 0.0, 0.0, 0.0, 0.0, 0.0, 1.7564856385285676E9, 0.0, 2025-08-29 13:40:38.528
32.0, -423.13041103677824, -21.73629854246974, -820.8949506240897, -333.5448474981822, 0.0, 0.06400000303983688, 0.9760000463575125, 0.0, 0.0, 0.0, 0.0, 0.0, 1.7564856385442712E9, 0.0, 2025-08-29 13:40:38.544
32.0, -376.77435108600184, -82.16934192646295, -663.6994756865315, -174.12787198694423, 0.0, 0.06400000303983688, 0.9760000463575125, 0.0, 0.0, 0.0, 0.0, 0.0, 1.7564856385442712E9, 0.0, 2025-08-29 13:40:38.544
33.0, -285.8910422627814, 145.82243917230517, -876.3314876672812, -377.5223310771398, 0.0, 0.06400000303983688, 0.9760000463575125, 0.0, 0.0, 0.0, 0.0, 0.0, 1.756485638545001E9, 0.0, 2025-08-29 13:40:38.545
33.0, -177.88460149243474, 61.89908416662365, -896.4446696289815, -427.76414708187804, 0.0, 0.06400000303983688, 0.9760000463575125, 0.0, 0.0, 0.0, 0.0, 0.0, 1.756485638545001E9, 0.0, 2025-08-29 13:40:38.545
34.0, -56.43696028133854, -107.11447463091463, -1140.5722490865737, -197.75655990699306, 0.0, 0.06400000303983688, 0.9760000463575125, 0.0, 0.0, 0.0, 0.0, 0.0, 1.7564856385585544E9, 0.0, 2025-08-29 13:40:38.558
34.0, 70.44662551535293, 92.09129650890827, -1245.5512408427894, -306.8756209141575, 0.0, 0.06400000303983688, 0.9760000463575125, 0.0, 0.0, 0.0, 0.0, 0.0, 1.7564856385585544E9, 0.0, 2025-08-29 13:40:38.558
35.0, 59.85522884083912, 164.21900705434382, -1446.6643609600142, -499.4430696326308, 0.0, 0.06400000303983688, 0.9760000463575125, 0.0, 0.0, 0.0, 0.0, 0.0, 1.7564856385742664E9, 0.0, 2025-08-29 13:40:38.574
35.0, -86.28884172765538, 406.27094203652814, -1259.2654539803043, -296.7217925344594, 0.0, 0.06400000303983688, 0.9760000463575125, 0.0, 0.0, 0.0, 0.0, 0.0, 1.7564856385742664E9, 0.0, 2025-08-29 13:40:38.574
36.0, -143.51866079960018, 494.24086879426613, -1186.73757413961, -190.28797969548032, 0.0, 0.06400000303983688, 0.9760000463575125, 0.0, 0.0, 0.0, 0.0, 0.0, 1.7564856385750003E9, 0.0, 2025-08-29 13:40:38.575
36.0, -278.8151515466161, 689.6207222794183, -1391.029609219171, -400.94158459967, 0.0, 0.06400000303983688, 0.9760000463575125, 0.0, 0.0, 0.0, 0.0, 0.0, 1.7564856385750003E9, 0.0, 2025-08-29 13:40:38.575
37.0, -409.577013597358, 483.3241008236073, -1259.7853000741452, -281.02543242042884, 0.0, 0.06400000303983688, 0.9760000463575125, 0.0, 0.0, 0.0, 0.0, 0.0, 1.756485638588552E9, 0.0, 2025-08-29 13:40:38.588
37.0, -360.05325838411227, 440.4498877315782, -1055.710179192014, -89.97264318400994, 0.0, 0.06400000303983688, 0.9760000463575125, 0.0, 0.0, 0.0, 0.0, 0.0, 1.756485638588552E9, 0.0, 2025-08-29 13:40:38.588
38.0, -255.64647132111713, 668.0751586346887, -1254.7065159343183, -279.27515924116597, 0.0, 0.06400000303983688, 0.9760000463575125, 0.0, 0.0, 0.0, 0.0, 0.0, 1.7564856386042666E9, 0.0, 2025-08-29 13:40:38.604
38.0, -140.35096553713083, 581.0589063656516, -1271.6931415330619, -301.056336583104, 0.0, 0.06400000303983688, 0.9760000463575125, 0.0, 0.0, 0.0, 0.0, 0.0, 1.7564856386042666E9, 0.0, 2025-08-29 13:40:38.604
39.0, -2.9638707148842514, 419.708402577322, -1510.0612750588916, -543.6355974590406, 0.0, 0.06400000303983688, 0.9760000463575125, 0.0, 0.0, 0.0, 0.0, 0.0, 1.756485638604998E9, 0.0, 2025-08-29 13:40:38.604
39.0, 112.27366661978886, 599.8668632428162, -1624.2142414064147, -645.5553510515019, 0.0, 0.06400000303983688, 0.9760000463575125, 0.0, 0.0, 0.0, 0.0, 0.0, 1.756485638604998E9, 0.0, 2025-08-29 13:40:38.604
40.0, 95.14118492277339, 656.4739889721386, -1783.541459318716, -783.2921265196055, 0.0, 0.06400000303983688, 0.9760000463575125, 0.0, 0.0, 0.0, 0.0, 0.0, 1.756485638618544E9, 0.0, 2025-08-29 13:40:38.618
40.0, -27.62851092265919, 432.2969058281742, -1580.7940029208548, -562.0097259413451, 0.0, 0.06400000303983688, 0.9760000463575125, 0.0, 0.0, 0.0, 0.0, 0.0, 1.756485638618544E9, 0.0, 2025-08-29 13:40:38.618
41.0, -74.35295101907104, 544.1086948034354, -1512.9185586250387, -494.10062254592776, 0.0, 0.06400000303983688, 0.9760000463575125, 0.0, 0.0, 0.0, 0.0, 0.0, 1.7564856386342697E9, 0.0, 2025-08-29 13:40:38.634
41.0, -221.4189069266431, 709.3860935452394, -1721.2235063570552, -707.5516726169735, 0.0, 0.06400000303983688, 0.9760000463575125, 0.0, 0.0, 0.0, 0.0, 0.0, 1.7564856386342697E9, 0.0, 2025-08-29 13:40:38.634
42.0, -332.04140771599486, 530.6749741625972, -1625.5942644900642, -600.4932964853942, 0.0, 0.06400000303983688, 0.9760000463575125, 0.0, 0.0, 0.0, 0.0, 0.0, 1.7564856386350017E9, 0.0, 2025-08-29 13:40:38.635
42.0, -307.88165400223807, 476.947571399156, -1446.617612210568, -438.93335829954594, 0.0, 0.06400000303983688, 0.9760000463575125, 0.0, 0.0, 0.0, 0.0, 0.0, 1.7564856386350017E9, 0.0, 2025-08-29 13:40:38.635
43.0, -218.53544406080619, 696.6105952966027, -1212.4306868351996, -220.3866945388727, 0.0, 0.06400000303983688, 0.9760000463575125, 0.0, 0.0, 0.0, 0.0, 0.0, 1.756485638648546E9, 0.0, 2025-08-29 13:40:38.648
43.0, -120.20038457587361, 582.1359975528903, -1282.9390206998214, -277.35285066394135, 0.0, 0.06400000303983688, 0.9760000463575125, 0.0, 0.0, 0.0, 0.0, 0.0, 1.756485638648546E9, 0.0, 2025-08-29 13:40:38.648
44.0, -5.888472480233759, 412.34827946452424, -1040.6159429708496, -42.06826465157792, 0.0, 0.06400000303983688, 0.9760000463575125, 0.0, 0.0, 0.0, 0.0, 0.0, 1.7564856386642673E9, 0.0, 2025-08-29 13:40:38.664
44.0, 148.7563906875439, 629.0380828971975, -1150.77095626574, -136.06317023793235, 0.0, 0.06400000303983688, 0.9760000463575125, 0.0, 0.0, 0.0, 0.0, 0.0, 1.7564856386642673E9, 0.0, 2025-08-29 13:40:38.664
45.0, 124.98932646913454, 681.579937374685, -1309.0510021904483, -311.8010691558011, 0.0, 0.06400000303983688, 0.9760000463575125, 0.0, 0.0, 0.0, 0.0, 0.0, 1.7564856386649885E9, 0.0, 2025-08-29 13:40:38.664
45.0, -16.779061151202768, 919.402045506984, -1100.8919105567038, -105.09679860481992, 0.0, 0.06400000303983688, 0.9760000463575125, 0.0, 0.0, 0.0, 0.0, 0.0, 1.7564856386649885E9, 0.0, 2025-08-29 13:40:38.664
46.0, -78.63513646833599, 1024.919582856819, -1058.7207986563444, -69.22741812979802, 0.0, 0.06400000303983688, 0.9760000463575125, 0.0, 0.0, 0.0, 0.0, 0.0, 1.7564856386785426E9, 0.0, 2025-08-29 13:40:38.678
46.0, -224.39586729137227, 1202.1796210566536, -815.9358432828449, -310.66787946922705, 0.0, 0.06400000303983688, 0.9760000463575125, 0.0, 0.0, 0.0, 0.0, 0.0, 1.7564856386785426E9, 0.0, 2025-08-29 13:40:38.678
47.0, -367.1927273995243, 991.2081246562302, -715.6579057709314, -197.8201382062398, 0.0, 0.06400000303983688, 0.9760000463575125, 0.0, 0.0, 0.0, 0.0, 0.0, 1.7564856386942716E9, 0.0, 2025-08-29 13:40:38.694
47.0, -338.34687904128805, 937.4919415926561, -575.4789756317623, -54.338876406196505, 0.0, 0.06400000303983688, 0.9760000463575125, 0.0, 0.0, 0.0, 0.0, 0.0, 1.7564856386942716E9, 0.0, 2025-08-29 13:40:38.694
48.0, -233.9475717782043, 694.2806376242079, -764.6206759908237, -266.82877218862996, 0.0, 0.06400000303983688, 0.9760000463575125, 0.0, 0.0, 0.0, 0.0, 0.0, 1.756485638695001E9, 0.0, 2025-08-29 13:40:38.695
48.0, -133.9856558125466, 591.5044469418935, -797.5729345004074, -302.91506686108187, 0.0, 0.06400000303983688, 0.9760000463575125, 0.0, 0.0, 0.0, 0.0, 0.0, 1.756485638695001E9, 0.0, 2025-08-29 13:40:38.695
49.0, -20.915390502195805, 408.0174753158353, -568.1300722188316, -60.360115334857255, 0.0, 0.06400000303983688, 0.9760000463575125, 0.0, 0.0, 0.0, 0.0, 0.0, 1.7564856387085967E9, 0.0, 2025-08-29 13:40:38.708
49.0, 138.51654460886493, 632.8976596514694, -679.6202297979034, -172.27662150887772, 0.0, 0.06400000303983688, 0.9760000463575125, 0.0, 0.0, 0.0, 0.0, 0.0, 1.7564856387085967E9, 0.0, 2025-08-29 13:40:38.708
50.0, 120.4116889233701, 679.8969823946245, -865.190325699281, -360.382369580213, 0.0, 0.06400000303983688, 0.9760000463575125, 0.0, 0.0, 0.0, 0.0, 0.0, 1.756485638724274E9, 0.0, 2025-08-29 13:40:38.724
50.0, -45.120023015420884, 908.2721032388508, -666.1004914580844, -142.6827931595035, 0.0, 0.06400000303983688, 0.9760000463575125, 0.0, 0.0, 0.0, 0.0, 0.0, 1.756485638724274E9, 0.0, 2025-08-29 13:40:38.724
51.0, -101.89357429277152, 1015.0499868737534, -637.6174133955501, -101.64861084567383, 0.0, 0.04800000227987766, 0.9760000463575125, 0.0, 0.0, 0.0, 0.0, 0.0, 1.7564856387250185E9, 0.0, 2025-08-29 13:40:38.725
51.0, -221.40768722677603, 1201.2970046671107, -835.1215300555341, -338.9938817336224, 0.0, 0.04800000227987766, 0.9760000463575125, 0.0, 0.0, 0.0, 0.0, 0.0, 1.7564856387250185E9, 0.0, 2025-08-29 13:40:38.725
52.0, -374.7996839093976, 989.824361672625, -725.2133501577191, -251.4016848714091, 0.0, 0.04800000227987766, 0.9760000463575125, 0.0, 0.0, 0.0, 0.0, 0.0, 1.7564856387386024E9, 0.0, 2025-08-29 13:40:38.738
52.0, -340.1719502196647, 949.541899249889, -559.924731716048, -66.77030385890976, 0.0, 0.04800000227987766, 0.9760000463575125, 0.0, 0.0, 0.0, 0.0, 0.0, 1.7564856387386024E9, 0.0, 2025-08-29 13:40:38.738
53.0, -210.3413232578896, 1188.641183217056, -794.4164589378051, -279.1106036431156, 0.0, 0.04800000227987766, 0.9760000463575125, 0.0, 0.0, 0.0, 0.0, 0.0, 1.7564856387542949E9, 0.0, 2025-08-29 13:40:38.754
53.0, -121.73748345766217, 1075.7635227544233, -859.184046370443, -356.62003022478893, 0.0, 0.04800000227987766, 0.9760000463575125, 0.0, 0.0, 0.0, 0.0, 0.0, 1.7564856387542949E9, 0.0, 2025-08-29 13:40:38.754
54.0, -34.04617924662307, 884.6695946184918, -1102.963815132156, -131.83334338804707, 0.0, 0.04800000227987766, 0.9760000463575125, 0.0, 0.0, 0.0, 0.0, 0.0, 1.7564856387550287E9, 0.0, 2025-08-29 13:40:38.755
54.0, 137.11034222552553, 1090.0873395847157, -1169.6798904417083, -188.1038781213574, 0.0, 0.04800000227987766, 0.9760000463575125, 0.0, 0.0, 0.0, 0.0, 0.0, 1.7564856387550287E9, 0.0, 2025-08-29 13:40:38.755
55.0, 139.7843706938438, 1157.3270008880645, -1335.263960979879, -335.78504757164046, 0.0, 0.04800000227987766, 0.9760000463575125, 0.0, 0.0, 0.0, 0.0, 0.0, 1.7564856387686226E9, 0.0, 2025-08-29 13:40:38.768
55.0, -18.450796431396157, 923.4486172590405, -1139.543776598759, -143.24377815285698, 0.0, 0.04800000227987766, 0.9760000463575125, 0.0, 0.0, 0.0, 0.0, 0.0, 1.7564856387686226E9, 0.0, 2025-08-29 13:40:38.768
56.0, -67.1798229040578, 1023.3600445752963, -1115.4139420846477, -91.63689866429195, 0.0, 0.04800000227987766, 0.9760000463575125, 0.0, 0.0, 0.0, 0.0, 0.0, 1.7564856387842877E9, 0.0, 2025-08-29 13:40:38.784
56.0, -206.10401660809293, 1201.9365275595337, -1348.323691625148, 152.19896859675646, 0.0, 0.04800000227987766, 0.9760000463575125, 0.0, 0.0, 0.0, 0.0, 0.0, 1.7564856387842877E9, 0.0, 2025-08-29 13:40:38.784
57.0, -351.4402687861584, 1001.4778899345547, -1226.0813216734678, 245.4533739918843, 0.0, 0.04800000227987766, 0.9760000463575125, 0.0, 0.0, 0.0, 0.0, 0.0, 1.756485638785006E9, 0.0, 2025-08-29 13:40:38.785
57.0, -320.9787836470641, 939.3805910702795, -1065.1721260799095, 407.31624407414347, 0.0, 0.04800000227987766, 0.9760000463575125, 0.0, 0.0, 0.0, 0.0, 0.0, 1.756485638785006E9, 0.0, 2025-08-29 13:40:38.785
58.0, -208.79300467623398, 1184.1046845708042, -1270.0812446521595, 190.86205433867872, 0.0, 0.04800000227987766, 0.9760000463575125, 0.0, 0.0, 0.0, 0.0, 0.0, 1.7564856387986248E9, 0.0, 2025-08-29 13:40:38.798
58.0, -126.85740649700165, 1083.4527570633218, -1322.9559502257034, 151.1817158088088, 0.0, 0.04800000227987766, 0.9760000463575125, 0.0, 0.0, 0.0, 0.0, 0.0, 1.7564856387986248E9, 0.0, 2025-08-29 13:40:38.798
59.0, -28.167056516278535, 881.1690482599661, -1094.3732649339363, -89.2471025926061, 0.0, 0.04800000227987766, 0.9760000463575125, 0.0, 0.0, 0.0, 0.0, 0.0, 1.7564856388142896E9, 0.0, 2025-08-29 13:40:38.814
59.0, 155.5779682067223, 1109.78913255129, -1192.224007374607, -199.36471688793972, 0.0, 0.04800000227987766, 0.9760000463575125, 0.0, 0.0, 0.0, 0.0, 0.0, 1.7564856388142896E9, 0.0, 2025-08-29 13:40:38.814
60.0, 132.21855308348313, 1166.0447076847777, -1368.9978585802019, -364.24568623444065, 0.0, 0.04800000227987766, 0.9760000463575125, 0.0, 0.0, 0.0, 0.0, 0.0, 1.7564856388150277E9, 0.0, 2025-08-29 13:40:38.815
60.0, -50.288564754184335, 1392.0337723572738, -1174.8185129808262, -167.38109246687964, 0.0, 0.04800000227987766, 0.9760000463575125, 0.0, 0.0, 0.0, 0.0, 0.0, 1.7564856388150277E9, 0.0, 2025-08-29 13:40:38.815
61.0, -106.79658313468099, 1492.6856998647563, -1121.0275319181383, -130.07185050891712, 0.0, 0.06400000303983688, 0.9760000463575125, 0.0, 0.0, 0.0, 0.0, 0.0, 1.7564856388285952E9, 0.0, 2025-08-29 13:40:38.828
61.0, -229.84116162685677, 1683.0279081095941, -1363.3543495470658, -365.01984552526847, 0.0, 0.06400000303983688, 0.9760000463575125, 0.0, 0.0, 0.0, 0.0, 0.0, 1.7564856388285952E9, 0.0, 2025-08-29 13:40:38.828
62.0, -400.8406073008664, 1462.5346264219843, -1274.2811523023993, -262.82333933608606, 0.0, 0.06400000303983688, 0.9760000463575125, 0.0, 0.0, 0.0, 0.0, 0.0, 1.7564856388442683E9, 0.0, 2025-08-29 13:40:38.844
62.0, -361.8222310631536, 1410.7893706350587, -1074.3348809713498, -81.49802988441661, 0.0, 0.06400000303983688, 0.9760000463575125, 0.0, 0.0, 0.0, 0.0, 0.0, 1.7564856388442683E9, 0.0, 2025-08-29 13:40:38.844
63.0, -224.72497848747298, 1171.8939112154767, -1269.2696863617748, -304.7999764387496, 0.0, 0.06400000303983688, 0.9760000463575125, 0.0, 0.0, 0.0, 0.0, 0.0, 1.756485638845002E9, 0.0, 2025-08-29 13:40:38.845
63.0, -147.98036144673824, 1076.1861314494163, -1343.3870236836374, -352.663216071669, 0.0, 0.06400000303983688, 0.9760000463575125, 0.0, 0.0, 0.0, 0.0, 0.0, 1.756485638845002E9, 0.0, 2025-08-29 13:40:38.845
64.0, -69.81832232279703, 865.2557739485055, -1106.4681013906375, -109.9250094476156, 0.0, 0.06400000303983688, 0.9760000463575125, 0.0, 0.0, 0.0, 0.0, 0.0, 1.7564856388585925E9, 0.0, 2025-08-29 13:40:38.858
64.0, 118.32482474809512, 1098.4759351853281, -1191.3264313852414, -215.48368569696322, 0.0, 0.06400000303983688, 0.9760000463575125, 0.0, 0.0, 0.0, 0.0, 0.0, 1.7564856388585925E9, 0.0, 2025-08-29 13:40:38.858
65.0, 102.57984593464062, 1160.2815218530595, -1363.2832914479077, -393.6824387856759, 0.0, 0.06400000303983688, 0.9760000463575125, 0.0, 0.0, 0.0, 0.0, 0.0, 1.7564856388743203E9, 0.0, 2025-08-29 13:40:38.874
65.0, -80.61541349487379, 1381.5695322812535, -1169.5489939432591, -187.87200432410464, 0.0, 0.06400000303983688, 0.9760000463575125, 0.0, 0.0, 0.0, 0.0, 0.0, 1.7564856388743203E9, 0.0, 2025-08-29 13:40:38.874
66.0, -132.44107713084668, 1489.2936106049456, -1105.809878998436, -124.9668870694004, 0.0, 0.06400000303983688, 0.9760000463575125, 0.0, 0.0, 0.0, 0.0, 0.0, 1.7564856388750255E9, 0.0, 2025-08-29 13:40:38.875
66.0, -248.3948053070344, 1674.889885806013, -1336.4420294659212, -353.39249656302854, 0.0, 0.06400000303983688, 0.9760000463575125, 0.0, 0.0, 0.0, 0.0, 0.0, 1.7564856388750255E9, 0.0, 2025-08-29 13:40:38.875
67.0, -410.60922598512843, 1462.8899169177748, -1247.1556579237804, -257.30698690144345, 0.0, 0.06400000303983688, 0.9760000463575125, 0.0, 0.0, 0.0, 0.0, 0.0, 1.756485638888636E9, 0.0, 2025-08-29 13:40:38.888
67.0, -405.07791395066306, 1388.6977815967984, -1088.1725108074024, -102.86781823122874, 0.0, 0.06400000303983688, 0.9760000463575125, 0.0, 0.0, 0.0, 0.0, 0.0, 1.756485638888636E9, 0.0, 2025-08-29 13:40:38.888
68.0, -239.71075760992244, 1171.8939112154767, -1286.791117654182, -299.61647510016337, 0.0, 0.06400000303983688, 0.9760000463575125, 0.0, 0.0, 0.0, 0.0, 0.0, 1.7564856389042804E9, 0.0, 2025-08-29 13:40:38.904
68.0, -156.12212365027517, 1065.4451387766749, -1340.33900521975, -355.774812834803, 0.0, 0.06400000303983688, 0.9760000463575125, 0.0, 0.0, 0.0, 0.0, 0.0, 1.7564856389042804E9, 0.0, 2025-08-29 13:40:38.904
69.0, -83.80554815707728, 858.0115877343342, -1100.0354734668508, -593.6904184659943, 0.0, 0.06400000303983688, 0.9760000463575125, 0.0, 0.0, 0.0, 0.0, 0.0, 1.7564856389050272E9, 0.0, 2025-08-29 13:40:38.905
69.0, 117.83863775385544, 614.1271017738618, -1185.252833857201, -677.8755664685741, 0.0, 0.06400000303983688, 0.9760000463575125, 0.0, 0.0, 0.0, 0.0, 0.0, 1.7564856389050272E9, 0.0, 2025-08-29 13:40:38.905
70.0, 96.05372051196173, 672.8023921786807, -1357.235873219557, -870.7235076837242, 0.0, 0.06400000303983688, 0.9760000463575125, 0.0, 0.0, 0.0, 0.0, 0.0, 1.7564856389185963E9, 0.0, 2025-08-29 13:40:38.918
70.0, -87.3958521145396, 892.7776977224275, -1154.07702782657, -659.8716880818829, 0.0, 0.06400000303983688, 0.9760000463575125, 0.0, 0.0, 0.0, 0.0, 0.0, 1.7564856389185963E9, 0.0, 2025-08-29 13:40:38.918
71.0, -127.52684858907014, 1004.6119260974228, -1090.663284177892, -623.5909186117351, 0.0, 0.04800000227987766, 0.9760000463575125, 0.0, 0.0, 0.0, 0.0, 0.0, 1.756485638934243E9, 0.0, 2025-08-29 13:40:38.934
71.0, -239.56864141160622, 1183.5698788771406, -849.3032306875102, -857.5515800397843, 0.0, 0.04800000227987766, 0.9760000463575125, 0.0, 0.0, 0.0, 0.0, 0.0, 1.756485638934243E9, 0.0, 2025-08-29 13:40:38.934
72.0, -425.50524750864133, 961.0869704131037, -763.229433207307, -762.3412069678307, 0.0, 0.04800000227987766, 0.9760000463575125, 0.0, 0.0, 0.0, 0.0, 0.0, 1.756485638935002E9, 0.0, 2025-08-29 13:40:38.935
72.0, -413.0252013565041, 892.6131421243772, -570.4338505915366, -566.2432926911861, 0.0, 0.04800000227987766, 0.9760000463575125, 0.0, 0.0, 0.0, 0.0, 0.0, 1.756485638935002E9, 0.0, 2025-08-29 13:40:38.935
73.0, -242.9906498710625, 676.7143275323324, -794.4650776372291, -774.2191292271018, 0.0, 0.04800000227987766, 0.9760000463575125, 0.0, 0.0, 0.0, 0.0, 0.0, 1.7564856389485705E9, 0.0, 2025-08-29 13:40:38.948
73.0, -147.5166138522327, 580.8345123683102, -850.1933268769644, -829.5060702720657, 0.0, 0.04800000227987766, 0.9760000463575125, 0.0, 0.0, 0.0, 0.0, 0.0, 1.7564856389485705E9, 0.0, 2025-08-29 13:40:38.948
74.0, -76.66607914166525, 380.282377244439, -1078.8414604179561, -1062.2045154650696, 0.0, 0.04800000227987766, 0.9760000463575125, 0.0, 0.0, 0.0, 0.0, 0.0, 1.7564856389642482E9, 0.0, 2025-08-29 13:40:38.964
74.0, 114.26329339621589, 618.8094565183856, -1154.5968739204109, -1168.5934495045803, 0.0, 0.04800000227987766, 0.9760000463575125, 0.0, 0.0, 0.0, 0.0, 0.0, 1.7564856389642482E9, 0.0, 2025-08-29 13:40:38.964
75.0, 114.38297019479796, 681.265785778407, -1335.9932414712384, -1365.9255307666026, 0.0, 0.04800000227987766, 0.9760000463575125, 0.0, 0.0, 0.0, 0.0, 0.0, 1.7564856389649937E9, 0.0, 2025-08-29 13:40:38.964
75.0, -83.82050775690004, 886.7340193940327, -1136.1816065385938, -1171.203899673652, 0.0, 0.04800000227987766, 0.9760000463575125, 0.0, 0.0, 0.0, 0.0, 0.0, 1.7564856389649937E9, 0.0, 2025-08-29 13:40:38.964
76.0, -140.45568273589015, 985.2130650272593, -1063.1937190033495, -1073.0614450364374, 0.0, 0.04800000227987766, 0.9760000463575125, 0.0, 0.0, 0.0, 0.0, 0.0, 1.7564856389785707E9, 0.0, 2025-08-29 13:40:38.978
76.0, -227.09981495933607, 1202.5536110522225, -1306.9977971147746, -1311.7904789079912, 0.0, 0.04800000227987766, 0.9760000463575125, 0.0, 0.0, 0.0, 0.0, 0.0, 1.7564856389785707E9, 0.0, 2025-08-29 13:40:38.978
77.0, -408.5747204092331, 977.8417222145945, -1224.2151115955785, -1223.2633070568554, 0.0, 0.04800000227987766, 0.9760000463575125, 0.0, 0.0, 0.0, 0.0, 0.0, 1.7564856389942472E9, 0.0, 2025-08-29 13:40:38.994
77.0, -382.862908213865, 916.0062163472176, -1029.7590133994818, -1030.624800239224, 0.0, 0.04800000227987766, 0.9760000463575125, 0.0, 0.0, 0.0, 0.0, 0.0, 1.7564856389942472E9, 0.0, 2025-08-29 13:40:38.994
78.0, -214.376675310079, 694.3180366237648, -1247.0210215253755, -1232.6467160456814, 0.0, 0.04800000227987766, 0.9760000463575125, 0.0, 0.0, 0.0, 0.0, 0.0, 1.756485638995006E9, 0.0, 2025-08-29 13:40:38.995
78.0, -113.85377435106784, 596.564531581942, -1313.8343342337757, -1306.4349421714433, 0.0, 0.04800000227987766, 0.9760000463575125, 0.0, 0.0, 0.0, 0.0, 0.0, 1.756485638995006E9, 0.0, 2025-08-29 13:40:38.995
79.0, -79.80759510444477, 376.4639393896796, -1078.082260726951, -1084.9318874957971, 0.0, 0.04800000227987766, 0.9760000463575125, 0.0, 0.0, 0.0, 0.0, 0.0, 1.7564856390085695E9, 0.0, 2025-08-29 13:40:39.008
79.0, 102.46390903601423, 603.3113111020066, -1169.489155543968, -1180.6359273619018, 0.0, 0.04800000227987766, 0.9760000463575125, 0.0, 0.0, 0.0, 0.0, 0.0, 1.7564856390085695E9, 0.0, 2025-08-29 13:40:39.008
80.0, 120.2620929251425, 684.8224306362681, -1363.5824834443629, -1359.6798978406005, 0.0, 0.04800000227987766, 0.9760000463575125, 0.0, 0.0, 0.0, 0.0, 0.0, 1.7564856390242405E9, 0.0, 2025-08-29 13:40:39.024
80.0, -81.41201218543574, 904.9398523783311, -1145.7445307252929, -1143.4014834030531, 0.0, 0.04800000227987766, 0.9760000463575125, 0.0, 0.0, 0.0, 0.0, 0.0, 1.7564856390242405E9, 0.0, 2025-08-29 13:40:39.024
81.0, -147.76344724930823, 1001.7658622311428, -1092.5407139556482, -1094.5359505820088, 0.0, 0.04800000227987766, 0.9760000463575125, 0.0, 0.0, 0.0, 0.0, 0.0, 1.7564856390250006E9, 0.0, 2025-08-29 13:40:39.025
81.0, -223.57682920107618, 1204.513318629004, -1319.3394669685513, -1333.2163657541387, 0.0, 0.04800000227987766, 0.9760000463575125, 0.0, 0.0, 0.0, 0.0, 0.0, 1.7564856390250006E9, 0.0, 2025-08-29 13:40:39.025
82.0, -386.0119039765559, 981.6302408697084, -1225.4791977806017, -1234.0828376286663, 0.0, 0.04800000227987766, 0.9760000463575125, 0.0, 0.0, 0.0, 0.0, 0.0, 1.7564856390385697E9, 0.0, 2025-08-29 13:40:39.038
82.0, -403.9858631636016, 904.7191982809454, -1050.2200060570613, -1046.941983745899, 0.0, 0.04800000227987766, 0.9760000463575125, 0.0, 0.0, 0.0, 0.0, 0.0, 1.7564856390385697E9, 0.0, 2025-08-29 13:40:39.038
83.0, -212.54786423174664, 701.442546039354, -1242.0843535838649, -1238.0994901810773, 0.0, 0.04800000227987766, 0.9760000463575125, 0.0, 0.0, 0.0, 0.0, 0.0, 1.7564856390542479E9, 0.0, 2025-08-29 13:40:39.054
83.0, -99.5673565203324, 607.1334888567217, -1302.7679702648893, -1312.5347189991735, 0.0, 0.04800000227987766, 0.9760000463575125, 0.0, 0.0, 0.0, 0.0, 0.0, 1.7564856390542479E9, 0.0, 2025-08-29 13:40:39.054
84.0, -78.67440541787073, 380.39831414306536, -1079.5557813094929, -1076.0982438004576, 0.0, 0.04800000227987766, 0.9760000463575125, 0.0, 0.0, 0.0, 0.0, 0.0, 1.7564856390550103E9, 0.0, 2025-08-29 13:40:39.055
84.0, 117.81993825407699, 614.6058089681901, -1179.1941959289834, -1161.420321389567, 0.0, 0.04800000227987766, 0.9760000463575125, 0.0, 0.0, 0.0, 0.0, 0.0, 1.7564856390550103E9, 0.0, 2025-08-29 13:40:39.055
85.0, 125.04542496846989, 676.115943539422, -1374.820882811211, -1374.0672929701395, 0.0, 0.04800000227987766, 0.9760000463575125, 0.0, 0.0, 0.0, 0.0, 0.0, 1.756485639068568E9, 0.0, 2025-08-29 13:40:39.068
85.0, -80.10678710089996, 887.9794060792774, -1168.7224760530517, -1177.0381436045282, 0.0, 0.04800000227987766, 0.9760000463575125, 0.0, 0.0, 0.0, 0.0, 0.0, 1.756485639068568E9, 0.0, 2025-08-29 13:40:39.068
86.0, -160.05649840366095, 980.4671319834888, -1102.6571433357894, -1090.2612449326552, 0.0, 0.04800000227987766, 0.9760000463575125, 0.0, 0.0, 0.0, 0.0, 0.0, 1.7564856390842357E9, 0.0, 2025-08-29 13:40:39.084
86.0, -218.6401612595655, 1195.9601674303412, -1333.9886550949886, -1331.9634992689826, 0.0, 0.04800000227987766, 0.9760000463575125, 0.0, 0.0, 0.0, 0.0, 0.0, 1.7564856390842357E9, 0.0, 2025-08-29 13:40:39.084
87.0, -384.0895953993313, 981.839675267227, -1234.1856848774478, -1232.482160447631, 0.0, 0.04800000227987766, 0.9760000463575125, 0.0, 0.0, 0.0, 0.0, 0.0, 1.756485639084998E9, 0.0, 2025-08-29 13:40:39.084
87.0, -405.75109594268724, 899.442199443467, -1045.7620453098789, -1058.6927494066767, 0.0, 0.04800000227987766, 0.9760000463575125, 0.0, 0.0, 0.0, 0.0, 0.0, 1.756485639084998E9, 0.0, 2025-08-29 13:40:39.084
88.0, -230.60410121781752, 677.6418227213435, -1257.1449307054281, -1254.6522873849608, 0.0, 0.04800000227987766, 0.9760000463575125, 0.0, 0.0, 0.0, 0.0, 0.0, 1.756485639098568E9, 0.0, 2025-08-29 13:40:39.098
88.0, -115.93689862638712, 589.8214919618331, -1334.0223141945899, -1317.0188590460457, 0.0, 0.04800000227987766, 0.9760000463575125, 0.0, 0.0, 0.0, 0.0, 0.0, 1.756485639098568E9, 0.0, 2025-08-29 13:40:39.098
89.0, -98.30140038533136, 354.1479563540779, -1104.5383130135015, -1096.2600444615819, 0.0, 0.04800000227987766, 0.9760000463575125, 0.0, 0.0, 0.0, 0.0, 0.0, 1.7564856391142445E9, 0.0, 2025-08-29 13:40:39.114
89.0, 101.94032304221764, 593.0565054235049, -1172.5109947081655, -1187.1209138850681, 0.0, 0.04800000227987766, 0.9760000463575125, 0.0, 0.0, 0.0, 0.0, 0.0, 1.7564856391142445E9, 0.0, 2025-08-29 13:40:39.114
90.0, 127.86530953506008, 667.6263706400059, -1371.9000209458172, -1365.824553467799, 0.0, 0.04800000227987766, 0.9760000463575125, 0.0, 0.0, 0.0, 0.0, 0.0, 1.7564856391150525E9, 0.0, 2025-08-29 13:40:39.115
90.0, -76.35940734529868, 879.5197523795068, -1172.4623760087416, -1160.2347731036134, 0.0, 0.04800000227987766, 0.9760000463575125, 0.0, 0.0, 0.0, 0.0, 0.0, 1.7564856391150525E9, 0.0, 2025-08-29 13:40:39.115
91.0, -154.99267386365682, 980.0333035886288, -1083.8566662585363, -1099.0163507289253, 0.0, 0.04800000227987766, 0.9760000463575125, 0.0, 0.0, 0.0, 0.0, 0.0, 1.7564856391285965E9, 0.0, 2025-08-29 13:40:39.128
91.0, -214.53749100817367, 1199.2138803917915, -841.6775746778585, -1331.0210444801487, 0.0, 0.04800000227987766, 0.9760000463575125, 0.0, 0.0, 0.0, 0.0, 0.0, 1.7564856391285965E9, 0.0, 2025-08-29 13:40:39.128
92.0, -360.3674099803902, 996.530002293177, -755.4429614995606, -1236.0350654055364, 0.0, 0.04800000227987766, 0.9760000463575125, 0.0, 0.0, 0.0, 0.0, 0.0, 1.756485639144274E9, 0.0, 2025-08-29 13:40:39.144
92.0, -405.44442414632067, 892.519644625485, -571.937290373724, -1065.9930341201834, 0.0, 0.04800000227987766, 0.9760000463575125, 0.0, 0.0, 0.0, 0.0, 0.0, 1.756485639144274E9, 0.0, 2025-08-29 13:40:39.144
93.0, -232.7620234922506, 674.7695795553736, -774.7408452709205, -1264.7051384658553, 0.0, 0.04800000227987766, 0.9760000463575125, 0.0, 0.0, 0.0, 0.0, 0.0, 1.7564856391450295E9, 0.0, 2025-08-29 13:40:39.145
93.0, -100.54721030872315, 595.4799605947919, -846.1729344245978, -1326.23023263691, 0.0, 0.04800000227987766, 0.9760000463575125, 0.0, 0.0, 0.0, 0.0, 0.0, 1.7564856391450295E9, 0.0, 2025-08-29 13:40:39.145
94.0, -97.71797599224374, 357.3829698157497, -609.0408378341235, -1095.6018220693804, 0.0, 0.04800000227987766, 0.9760000463575125, 0.0, 0.0, 0.0, 0.0, 0.0, 1.7564856391586044E9, 0.0, 2025-08-29 13:40:39.158
94.0, 87.30983441555873, 584.1443238290958, -677.249133225996, -1175.2504714257084, 0.0, 0.04800000227987766, 0.9760000463575125, 0.0, 0.0, 0.0, 0.0, 0.0, 1.7564856391586044E9, 0.0, 2025-08-29 13:40:39.158
95.0, 149.37721408018842, 674.7060012561269, -877.7676092502661, -1363.0570275005884, 0.0, 0.04800000227987766, 0.9760000463575125, 0.0, 0.0, 0.0, 0.0, 0.0, 1.7564856391742775E9, 0.0, 2025-08-29 13:40:39.174
95.0, -61.990711715538055, 891.9362202323973, -691.1092024617828, -1167.4939189176075, 0.0, 0.04800000227987766, 0.9760000463575125, 0.0, 0.0, 0.0, 0.0, 0.0, 1.7564856391742775E9, 0.0, 2025-08-29 13:40:39.174
96.0, -159.04672541562468, 978.6831997046247, -607.6645546504296, -1082.5420914241113, 0.0, 0.04800000227987766, 0.9760000463575125, 0.0, 0.0, 0.0, 0.0, 0.0, 1.7564856391750093E9, 0.0, 2025-08-29 13:40:39.175
96.0, -215.24059219984338, 1199.797304784879, -832.0510721919127, -1311.5548652107827, 0.0, 0.04800000227987766, 0.9760000463575125, 0.0, 0.0, 0.0, 0.0, 0.0, 1.7564856391750093E9, 0.0, 2025-08-29 13:40:39.175
97.0, -361.0518116722815, 991.1595059568062, -761.8643697234802, -1256.3913408643566, 0.0, 0.04800000227987766, 0.9760000463575125, 0.0, 0.0, 0.0, 0.0, 0.0, 1.7564856391885748E9, 0.0, 2025-08-29 13:40:39.188
97.0, -433.28797931643203, 891.8876015329733, -581.0252472660504, -1079.5688709593378, 0.0, 0.04800000227987766, 0.9760000463575125, 0.0, 0.0, 0.0, 0.0, 0.0, 1.7564856391885748E9, 0.0, 2025-08-29 13:40:39.188
98.0, -243.52171566477045, 666.56423905259, -782.4487790795974, -1272.558928372804, 0.0, 0.04800000227987766, 0.9760000463575125, 0.0, 0.0, 0.0, 0.0, 0.0, 1.756485639204268E9, 0.0, 2025-08-29 13:40:39.204
98.0, -99.05873012635857, 601.6620152215473, -851.3339963634498, -1343.9760579266585, 0.0, 0.04800000227987766, 0.9760000463575125, 0.0, 0.0, 0.0, 0.0, 0.0, 1.756485639204268E9, 0.0, 2025-08-29 13:40:39.204
99.0, -95.68721031630412, 364.5897570303641, -615.2864707601257, -1103.3097558780573, 0.0, 0.04800000227987766, 0.9760000463575125, 0.0, 0.0, 0.0, 0.0, 0.0, 1.7564856392050376E9, 0.0, 2025-08-29 13:40:39.205
99.0, 83.34554046252742, 583.5048009366728, -693.326963135507, -1176.0807292158715, 0.0, 0.04800000227987766, 0.9760000463575125, 0.0, 0.0, 0.0, 0.0, 0.0, 1.7564856392050376E9, 0.0, 2025-08-29 13:40:39.205
100.0, 148.47963809082285, 670.423815806862, -884.8995984657668, -1380.406423395034, 0.0, 0.04800000227987766, 0.9760000463575125, 0.0, 0.0, 0.0, 0.0, 0.0, 1.7564856392193224E9, 0.0, 2025-08-29 13:40:39.219
100.0, -68.7561907353811, 888.7049466706812, -686.0678173215128, -1176.364961612504, 0.0, 0.04800000227987766, 0.9760000463575125, 0.0, 0.0, 0.0, 0.0, 0.0, 1.7564856392193224E9, 0.0, 2025-08-29 13:40:39.219
0.0, -173.92591738933697, -13.145748344250023, -113.41807600622997, -121.55422835983336, 0.0, 0.04800000227987766, 0.9760000463575125, 0.0, 0.0, 0.0, 0.0, 0.0, 1.7564856392200537E9, 0.0, 2025-08-29 13:40:39.220
1.0, -221.60403197444975, 203.92552488390356, 113.04595596063882, -362.97599019948393, 0.0, 0.04800000227987766, 0.9760000463575125, 0.0, 0.0, 0.0, 0.0, 0.0, 1.7564856392335703E9, 0.0, 2025-08-29 13:40:39.233
1.0, -367.8789990413934, -2.9582608649507165, 179.21600587666035, -280.8290876727551, 0.0, 0.04800000227987766, 0.9760000463575125, 0.0, 0.0, 0.0, 0.0, 0.0, 1.7564856392335703E9, 0.0, 2025-08-29 13:40:39.233
2.0, -437.6169135151431, -91.79584441240877, 391.8218385577202, -110.59258158970624, 0.0, 0.04800000227987766, 0.9760000463575125, 0.0, 0.0, 0.0, 0.0, 0.0, 1.7564856392493217E9, 0.0, 2025-08-29 13:40:39.249
2.0, -254.20473988819867, -317.8746666838415, 210.75084230303764, -303.2198687074706, 0.0, 0.04800000227987766, 0.9760000463575125, 0.0, 0.0, 0.0, 0.0, 0.0, 1.7564856392493217E9, 0.0, 2025-08-29 13:40:39.249
3.0, -91.99966895999387, -374.77350460970774, 127.37351269088686, -366.23718296084553, 0.0, 0.04800000227987766, 0.9760000463575125, 0.0, 0.0, 0.0, 0.0, 0.0, 1.7564856392500591E9, 0.0, 2025-08-29 13:40:39.250
3.0, -93.27871474483982, -614.7254857667722, 360.8666866244748, -610.6564746149816, 0.0, 0.04800000227987766, 0.9760000463575125, 0.0, 0.0, 0.0, 0.0, 0.0, 1.7564856392500591E9, 0.0, 2025-08-29 13:40:39.250
4.0, 82.41056547360495, -396.9174522473477, 291.8842319417745, -671.3326114960946, 0.0, 0.04800000227987766, 0.9760000463575125, 0.0, 0.0, 0.0, 0.0, 0.0, 1.756485639263578E9, 0.0, 2025-08-29 13:40:39.263
4.0, 151.65481315320358, -302.3503419677727, 94.29783748276532, -895.3750582416542, 0.0, 0.04800000227987766, 0.9760000463575125, 0.0, 0.0, 0.0, 0.0, 0.0, 1.756485639263578E9, 0.0, 2025-08-29 13:40:39.263
5.0, -56.41826078156009, -77.78243927843869, 284.85695992503315, -713.1409531007521, 0.0, 0.04800000227987766, 0.9760000463575125, 0.0, 0.0, 0.0, 0.0, 0.0, 1.7564856392792935E9, 0.0, 2025-08-29 13:40:39.279
5.0, -186.48263149056584, -12.423947652801871, 362.66557850316167, -610.3124038190581, 0.0, 0.04800000227987766, 0.9760000463575125, 0.0, 0.0, 0.0, 0.0, 0.0, 1.7564856392792935E9, 0.0, 2025-08-29 13:40:39.279
6.0, -217.6790069709532, 214.9582297531888, 130.3242937559262, -841.3447235818021, 0.0, 0.04800000227987766, 0.9760000463575125, 0.0, 0.0, 0.0, 0.0, 0.0, 1.756485639280034E9, 0.0, 2025-08-29 13:40:39.280
6.0, -353.31395866395906, 2.41597537137568, 190.7947361394763, -777.0782827432267, 0.0, 0.04800000227987766, 0.9760000463575125, 0.0, 0.0, 0.0, 0.0, 0.0, 1.756485639280034E9, 0.0, 2025-08-29 13:40:39.280
7.0, -437.2971520689316, -93.2319659953937, 384.72350844182074, -584.8324654209428, 0.0, 0.04800000227987766, 0.9760000463575125, 0.0, 0.0, 0.0, 0.0, 0.0, 1.7564856392935913E9, 0.0, 2025-08-29 13:40:39.293
7.0, -247.1344590219669, -314.7967290203087, 205.45888386573642, -778.884654421825, 0.0, 0.04800000227987766, 0.9760000463575125, 0.0, 0.0, 0.0, 0.0, 0.0, 1.7564856392935913E9, 0.0, 2025-08-29 13:40:39.293
8.0, -69.08717188145965, -380.36465504346415, 135.174943998456, -857.9947581845336, 0.0, 0.04800000227987766, 0.9760000463575125, 0.0, 0.0, 0.0, 0.0, 0.0, 1.7564856393093207E9, 0.0, 2025-08-29 13:40:39.309
8.0, -91.21615991927683, -611.0603838101961, 372.5763133857399, -618.7084792195819, 0.0, 0.04800000227987766, 0.9760000463575125, 0.0, 0.0, 0.0, 0.0, 0.0, 1.7564856393093207E9, 0.0, 2025-08-29 13:40:39.309
9.0, 64.97702183015645, -403.13690587366, 294.71907610818744, -688.3715956942178, 0.0, 0.04800000227987766, 0.9760000463575125, 0.0, 0.0, 0.0, 0.0, 0.0, 1.7564856393100257E9, 0.0, 2025-08-29 13:40:39.310
9.0, 152.4084029942751, -300.58884908864275, 104.91541345696896, -880.4117185189389, 0.0, 0.04800000227987766, 0.9760000463575125, 0.0, 0.0, 0.0, 0.0, 0.0, 1.7564856393100257E9, 0.0, 2025-08-29 13:40:39.310
10.0, -54.35570595599711, -77.296252284199, 289.1092261746526, -696.8836079933681, 0.0, 0.04800000227987766, 0.9760000463575125, 0.0, 0.0, 0.0, 0.0, 0.0, 1.7564856393235726E9, 0.0, 2025-08-29 13:40:39.323
10.0, -188.53396661626175, -7.23296651430428, 380.83401248790324, -619.6023153089918, 0.0, 0.04800000227987766, 0.9760000463575125, 0.0, 0.0, 0.0, 0.0, 0.0, 1.7564856393235726E9, 0.0, 2025-08-29 13:40:39.323
11.0, -206.96980344783515, 215.05920705199242, 142.3667716132477, -842.6948274658062, 0.0, 0.04800000227987766, 0.9760000463575125, 0.0, 0.0, 0.0, 0.0, 0.0, 1.756485639339271E9, 0.0, 2025-08-29 13:40:39.339
11.0, -340.0204842714593, 15.774898013100028, 194.11576730012894, -789.4423919967376, 0.0, 0.04800000227987766, 0.9760000463575125, 0.0, 0.0, 0.0, 0.0, 0.0, 1.756485639339271E9, 0.0, 2025-08-29 13:40:39.339
12.0, -452.464316339232, -92.99635229818523, 396.298498804681, -593.5389525177889, 0.0, 0.04800000227987766, 0.9760000463575125, 0.0, 0.0, 0.0, 0.0, 0.0, 1.7564856393400416E9, 0.0, 2025-08-29 13:40:39.340
12.0, -246.92689457442611, -310.5070637711324, 220.77751408424228, -777.5869091372006, 0.0, 0.04800000227987766, 0.9760000463575125, 0.0, 0.0, 0.0, 0.0, 0.0, 1.7564856393400416E9, 0.0, 2025-08-29 13:40:39.340
13.0, -66.53843006165698, -373.5580371241085, 125.98226990737021, -870.183092140127, 0.0, 0.04800000227987766, 0.9760000463575125, 0.0, 0.0, 0.0, 0.0, 0.0, 1.7564856393535776E9, 0.0, 2025-08-29 13:40:39.353
13.0, -95.50395521847531, -611.4194142059423, 360.4291183296591, -1108.8578974623233, 0.0, 0.04800000227987766, 0.9760000463575125, 0.0, 0.0, 0.0, 0.0, 0.0, 1.7564856393535776E9, 0.0, 2025-08-29 13:40:39.353
14.0, 64.39546738704666, -408.4700032104738, 270.1217540996149, -1178.2554810401052, 0.0, 0.04800000227987766, 0.9760000463575125, 0.0, 0.0, 0.0, 0.0, 0.0, 1.756485639369346E9, 0.0, 2025-08-29 13:40:39.369
14.0, 169.86812593741342, -300.25599799258634, 83.49700641073287, -1381.2310713352636, 0.0, 0.04800000227987766, 0.9760000463575125, 0.0, 0.0, 0.0, 0.0, 0.0, 1.756485639369346E9, 0.0, 2025-08-29 13:40:39.369
15.0, -57.00168517464772, -84.96304719336331, 281.29657516721636, -1213.3320027245209, 0.0, 0.04800000227987766, 0.9760000463575125, 0.0, 0.0, 0.0, 0.0, 0.0, 1.7564856393699832E9, 0.0, 2025-08-29 13:40:39.369
15.0, -203.14762569312006, -21.844755641184747, 383.6239778548479, -1110.1593826469034, 0.0, 0.04800000227987766, 0.9760000463575125, 0.0, 0.0, 0.0, 0.0, 0.0, 1.7564856393699832E9, 0.0, 2025-08-29 13:40:39.369
16.0, -206.2311732065864, 217.16851062700152, 147.02668695803732, -1337.264807456173, 0.0, 0.04800000227987766, 0.9760000463575125, 0.0, 0.0, 0.0, 0.0, 0.0, 1.756485639383636E9, 0.0, 2025-08-29 13:40:39.383
16.0, -335.04828728036955, 26.085802190937102, 194.70667149312794, -1294.1662003668025, 0.0, 0.04800000227987766, 0.9760000463575125, 0.0, 0.0, 0.0, 0.0, 0.0, 1.756485639383636E9, 0.0, 2025-08-29 13:40:39.383
17.0, -442.5255322069861, -91.1189225204289, 389.93692898005247, -1099.7400213703513, 0.0, 0.04800000227987766, 0.9760000463575125, 0.0, 0.0, 0.0, 0.0, 0.0, 1.7564856393992977E9, 0.0, 2025-08-29 13:40:39.399
17.0, -231.18378571094945, -316.9135123952292, 192.23085772246122, -1279.2701788432896, 0.0, 0.04800000227987766, 0.9760000463575125, 0.0, 0.0, 0.0, 0.0, 0.0, 1.7564856393992977E9, 0.0, 2025-08-29 13:40:39.399
18.0, -67.93528269510716, -368.2660786868073, 107.74277782347053, -1361.61529606767, 0.0, 0.04800000227987766, 0.9760000463575125, 0.0, 0.0, 0.0, 0.0, 0.0, 1.7564856394000285E9, 0.0, 2025-08-29 13:40:39.400
18.0, -102.55553658492863, -607.4364207531326, -136.21276623615995, -1121.996166006662, 0.0, 0.04800000227987766, 0.9760000463575125, 0.0, 0.0, 0.0, 0.0, 0.0, 1.7564856394000285E9, 0.0, 2025-08-29 13:40:39.400
19.0, 49.265702116303146, -404.5468481569551, -198.58681769715622, -1191.4872470833361, 0.0, 0.04800000227987766, 0.9760000463575125, 0.0, 0.0, 0.0, 0.0, 0.0, 1.7564856394135969E9, 0.0, 2025-08-29 13:40:39.413
19.0, 164.39852225221694, -302.3204227681272, -410.75134218344465, -1401.1834375988692, 0.0, 0.04800000227987766, 0.9760000463575125, 0.0, 0.0, 0.0, 0.0, 0.0, 1.7564856394135969E9, 0.0, 2025-08-29 13:40:39.413
20.0, -56.551027229987085, -76.04712569899857, -220.7120658350177, -1209.001198575832, 0.0, 0.04800000227987766, 0.9760000463575125, 0.0, 0.0, 0.0, 0.0, 0.0, 1.7564856394292777E9, 0.0, 2025-08-29 13:40:39.429
20.0, -208.57235057884827, -20.715305854566395, -108.72450156183913, -1111.7002214286476, 0.0, 0.04800000227987766, 0.9760000463575125, 0.0, 0.0, 0.0, 0.0, 0.0, 1.7564856394292777E9, 0.0, 2025-08-29 13:40:39.429
21.0, -209.86074611358345, 213.51462837029248, 133.27881472092122, -1352.6694553736597, 0.0, 0.06400000303983688, 0.9760000463575125, 0.0, 0.0, 0.0, 0.0, 0.0, 1.756485639430016E9, 0.0, 2025-08-29 13:40:39.430
21.0, -335.32316992711276, 19.226825672201812, 179.3095033755526, -1298.3735878169537, 0.0, 0.06400000303983688, 0.9760000463575125, 0.0, 0.0, 0.0, 0.0, 0.0, 1.756485639430016E9, 0.0, 2025-08-29 13:40:39.430
22.0, -456.94097658619285, -99.7506116181612, 388.3325118990615, -1085.633118737489, 0.0, 0.06400000303983688, 0.9760000463575125, 0.0, 0.0, 0.0, 0.0, 0.0, 1.7564856394436383E9, 0.0, 2025-08-29 13:40:39.443
22.0, -262.5746359890327, -323.97070361161605, 219.05716010462493, -1267.145423186943, 0.0, 0.06400000303983688, 0.9760000463575125, 0.0, 0.0, 0.0, 0.0, 0.0, 1.7564856394436383E9, 0.0, 2025-08-29 13:40:39.443
23.0, -51.75086563685909, -364.1895877351053, 112.55976896639913, -1360.1903941845521, 0.0, 0.06400000303983688, 0.9760000463575125, 0.0, 0.0, 0.0, 0.0, 0.0, 1.75648563945903E9, 0.0, 2025-08-29 13:40:39.459
23.0, -101.72714874474332, -600.6185831339099, 356.89865277148783, -1125.0180051708594, 0.0, 0.06400000303983688, 0.9760000463575125, 0.0, 0.0, 0.0, 0.0, 0.0, 1.75648563945903E9, 0.0, 2025-08-29 13:40:39.459
24.0, 50.50173905165866, -407.8342202180065, 305.49372788053006, -1191.2217141864821, 0.0, 0.06400000303983688, 0.9760000463575125, 0.0, 0.0, 0.0, 0.0, 0.0, 1.7564856394742708E9, 0.0, 2025-08-29 13:40:39.474
24.0, 172.93110400112346, -292.58172328351066, 103.96921876817942, -1397.9708635369316, 0.0, 0.06400000303983688, 0.9760000463575125, 0.0, 0.0, 0.0, 0.0, 0.0, 1.7564856394742708E9, 0.0, 2025-08-29 13:40:39.474
25.0, -54.357575905974954, -72.91682943608612, 271.8608075790107, -1204.4983590291813, 0.0, 0.06400000303983688, 0.9760000463575125, 0.0, 0.0, 0.0, 0.0, 0.0, 1.7564856394749978E9, 0.0, 2025-08-29 13:40:39.474
25.0, -208.9519504243508, -6.709380520507693, 384.12886434886605, -1094.3470856342465, 0.0, 0.06400000303983688, 0.9760000463575125, 0.0, 0.0, 0.0, 0.0, 0.0, 1.7564856394749978E9, 0.0, 2025-08-29 13:40:39.474
26.0, -214.7843244052492, 215.46311624720693, 622.1230078791268, -1330.3833915377036, 0.0, 0.06400000303983688, 0.9760000463575125, 0.0, 0.0, 0.0, 0.0, 0.0, 1.756485639489267E9, 0.0, 2025-08-29 13:40:39.489
26.0, -330.9493569289334, 22.648834131658077, 681.0563513808884, -1286.6639610556886, 0.0, 0.06400000303983688, 0.9760000463575125, 0.0, 0.0, 0.0, 0.0, 0.0, 1.756485639489267E9, 0.0, 2025-08-29 13:40:39.489
27.0, -467.22757141431794, -99.71695251855999, 906.2245080131106, -1072.3976127943024, 0.0, 0.06400000303983688, 0.9760000463575125, 0.0, 0.0, 0.0, 0.0, 0.0, 1.7564856394899979E9, 0.0, 2025-08-29 13:40:39.489
27.0, -252.07486686343327, -315.5746282110922, 715.4260319736786, -1261.8459849497303, 0.0, 0.06400000303983688, 0.9760000463575125, 0.0, 0.0, 0.0, 0.0, 0.0, 1.7564856394899979E9, 0.0, 2025-08-29 13:40:39.489
28.0, -51.13939199410379, -357.7158209118061, 592.6226770286448, -1382.0052306260914, 0.0, 0.06400000303983688, 0.9760000463575125, 0.0, 0.0, 0.0, 0.0, 0.0, 1.7564856395035844E9, 0.0, 2025-08-29 13:40:39.503
28.0, -117.37302020937204, -115.51428993139416, 827.4360356465913, -1151.3917796583846, 0.0, 0.06400000303983688, 0.9760000463575125, 0.0, 0.0, 0.0, 0.0, 0.0, 1.7564856395035844E9, 0.0, 2025-08-29 13:40:39.503
29.0, 36.392966468818486, 80.71078094374388, 801.1931576575153, -1179.5868854243308, 0.0, 0.06400000303983688, 0.9760000463575125, 0.0, 0.0, 0.0, 0.0, 0.0, 1.7564856395192692E9, 0.0, 2025-08-29 13:40:39.519
29.0, 180.40529406256974, 204.09008048195392, 611.1501414091326, -1384.7129181940109, 0.0, 0.06400000303983688, 0.9760000463575125, 0.0, 0.0, 0.0, 0.0, 0.0, 1.7564856395192692E9, 0.0, 2025-08-29 13:40:39.519
30.0, -43.689511282369494, 424.4692952209152, 771.8686021049507, -1198.6304559987038, 0.0, 0.06400000303983688, 0.9760000463575125, 0.0, 0.0, 0.0, 0.0, 0.0, 1.7564856395199974E9, 0.0, 2025-08-29 13:40:39.519
30.0, -239.37790651386604, 463.04262336390093, 862.5761356302537, -1090.240675482899, 0.0, 0.06400000303983688, 0.9760000463575125, 0.0, 0.0, 0.0, 0.0, 0.0, 1.7564856395199974E9, 0.0, 2025-08-29 13:40:39.519
31.0, -216.65053448313847, 699.8044698587619, 633.8887331397273, -847.1640079128556, 0.0, 0.04800000227987766, 0.9760000463575125, 0.0, 0.0, 0.0, 0.0, 0.0, 1.7564856395336E9, 0.0, 2025-08-29 13:40:39.533
31.0, -323.41345851821825, 514.069818359334, 671.7178211915307, -818.4602757529356, 0.0, 0.04800000227987766, 0.9760000463575125, 0.0, 0.0, 0.0, 0.0, 0.0, 1.7564856395336E9, 0.0, 2025-08-29 13:40:39.533
32.0, -475.6872251140885, 390.18189242715016, 876.5932806641795, -596.9310417775996, 0.0, 0.04800000227987766, 0.9760000463575125, 0.0, 0.0, 0.0, 0.0, 0.0, 1.7564856395492945E9, 0.0, 2025-08-29 13:40:39.549
32.0, -274.2524736006744, 170.00089238584042, 714.3975594858639, -780.4778518029489, 0.0, 0.04800000227987766, 0.9760000463575125, 0.0, 0.0, 0.0, 0.0, 0.0, 1.7564856395492945E9, 0.0, 2025-08-29 13:40:39.549
33.0, -48.876752520911396, 128.21873008087277, 613.5249778809957, -885.0342348641716, 0.0, 0.04800000227987766, 0.9760000463575125, 0.0, 0.0, 0.0, 0.0, 0.0, 1.7564856395500288E9, 0.0, 2025-08-29 13:40:39.550
33.0, -110.34574819263071, -108.43091941531748, 835.4768205513246, -1123.7127800863236, 0.0, 0.04800000227987766, 0.9760000463575125, 0.0, 0.0, 0.0, 0.0, 0.0, 1.7564856395500288E9, 0.0, 2025-08-29 13:40:39.550
34.0, 19.7130126664415, 83.06691791582853, 782.05608958425, -1184.1121643707156, 0.0, 0.04800000227987766, 0.9760000463575125, 0.0, 0.0, 0.0, 0.0, 0.0, 1.7564856395636067E9, 0.0, 2025-08-29 13:40:39.563
34.0, 172.29719095863402, 192.47769111953676, 590.606870952528, -1372.0870159436017, 0.0, 0.04800000227987766, 0.9760000463575125, 0.0, 0.0, 0.0, 0.0, 0.0, 1.7564856395636067E9, 0.0, 2025-08-29 13:40:39.563
35.0, -54.03033465985209, 417.46446260390803, 753.6590292206965, -1204.2515256321058, 0.0, 0.04800000227987766, 0.9760000463575125, 0.0, 0.0, 0.0, 0.0, 0.0, 1.7564856395792732E9, 0.0, 2025-08-29 13:40:39.579
35.0, -246.30794113175943, 458.3939277189784, 866.5927881826647, -1107.6648693764582, 0.0, 0.04800000227987766, 0.9760000463575125, 0.0, 0.0, 0.0, 0.0, 0.0, 1.7564856395792732E9, 0.0, 2025-08-29 13:40:39.579
36.0, -217.79494386957958, 702.3588215284981, 636.1364130130969, -1341.9995208000764, 0.0, 0.04800000227987766, 0.9760000463575125, 0.0, 0.0, 0.0, 0.0, 0.0, 1.75648563958001E9, 0.0, 2025-08-29 13:40:39.580
36.0, -318.67126537440345, 517.6489026169293, 656.8442390677519, -1314.096127230674, 0.0, 0.04800000227987766, 0.9760000463575125, 0.0, 0.0, 0.0, 0.0, 0.0, 1.75648563958001E9, 0.0, 2025-08-29 13:40:39.580
37.0, -492.1053859195672, 384.18683279817924, 884.7500024675392, -1111.4496481316164, 0.0, 0.04800000227987766, 0.9760000463575125, 0.0, 0.0, 0.0, 0.0, 0.0, 1.756485639593606E9, 0.0, 2025-08-29 13:40:39.593
37.0, -276.90780256921425, 160.924155193381, 714.143246288877, -1261.9245228487998, 0.0, 0.04800000227987766, 0.9760000463575125, 0.0, 0.0, 0.0, 0.0, 0.0, 1.756485639593606E9, 0.0, 2025-08-29 13:40:39.593
38.0, -514.9973135483451, 128.27108868025243, 606.7632387611084, -1373.134187931195, 0.0, 0.04800000227987766, 0.9760000463575125, 0.0, 0.0, 0.0, 0.0, 0.0, 1.7564856396092708E9, 0.0, 2025-08-29 13:40:39.609
38.0, -588.6583830756135, -113.7228778526187, 840.5331652914174, -1136.1479474389926, 0.0, 0.04800000227987766, 0.9760000463575125, 0.0, 0.0, 0.0, 0.0, 0.0, 1.7564856396092708E9, 0.0, 2025-08-29 13:40:39.609
39.0, -465.8699877304025, 68.83659858442843, 801.4212915548123, -1155.3934726109728, 0.0, 0.04800000227987766, 0.9760000463575125, 0.0, 0.0, 0.0, 0.0, 0.0, 1.7564856396100016E9, 0.0, 2025-08-29 13:40:39.610
39.0, -306.905540113803, 192.66842601727694, 569.8766054981388, -1388.8155884454027, 0.0, 0.04800000227987766, 0.9760000463575125, 0.0, 0.0, 0.0, 0.0, 0.0, 1.7564856396100016E9, 0.0, 2025-08-29 13:40:39.610
40.0, -517.3833697200753, 417.4495030040853, 740.5731192757376, -1241.3027144931257, 0.0, 0.04800000227987766, 0.9760000463575125, 0.0, 0.0, 0.0, 0.0, 0.0, 1.756485639623591E9, 0.0, 2025-08-29 13:40:39.623
40.0, -739.0341504439712, 455.77225785003975, 860.3097562571056, -1119.0304253417999, 0.0, 0.04800000227987766, 0.9760000463575125, 0.0, 0.0, 0.0, 0.0, 0.0, 1.756485639623591E9, 0.0, 2025-08-29 13:40:39.623
41.0, -703.8491716608405, 696.8275094940327, 626.8764207228087, -1345.9825142528862, 0.0, 0.04800000227987766, 0.9760000463575125, 0.0, 0.0, 0.0, 0.0, 0.0, 1.7564856396392665E9, 0.0, 2025-08-29 13:40:39.639
41.0, -786.639336979948, 529.5604839758016, 654.5292409951799, -1317.4321179911494, 0.0, 0.04800000227987766, 0.9760000463575125, 0.0, 0.0, 0.0, 0.0, 0.0, 1.7564856396392665E9, 0.0, 2025-08-29 13:40:39.639
42.0, -975.2761508449912, 388.84674814296886, 881.7431229031645, -1124.3560428787023, 0.0, 0.04800000227987766, 0.9760000463575125, 0.0, 0.0, 0.0, 0.0, 0.0, 1.75648563964E9, 0.0, 2025-08-29 13:40:39.640
42.0, -772.7792677441612, 157.02717943955213, 705.0777287962846, -1307.0426759142429, 0.0, 0.04800000227987766, 0.9760000463575125, 0.0, 0.0, 0.0, 0.0, 0.0, 1.75648563964E9, 0.0, 2025-08-29 13:40:39.640
43.0, -1003.6769511085004, 123.44661773741245, 572.6852703648619, -1396.1009135590866, 0.0, 0.04800000227987766, 0.9760000463575125, 0.0, 0.0, 0.0, 0.0, 0.0, 1.7564856396535947E9, 0.0, 2025-08-29 13:40:39.653
43.0, -1086.2539421301335, 367.58541689487174, 330.4612999847159, -1628.8330178516917, 0.0, 0.04800000227987766, 0.9760000463575125, 0.0, 0.0, 0.0, 0.0, 0.0, 1.7564856396535947E9, 0.0, 2025-08-29 13:40:39.653
44.0, -959.5797907309607, 553.3574673938565, 309.2635470358655, -1656.49705782393, 0.0, 0.04800000227987766, 0.9760000463575125, 0.0, 0.0, 0.0, 0.0, 0.0, 1.756485639669274E9, 0.0, 2025-08-29 13:40:39.669
44.0, -779.7392215617001, 687.9789061988704, 103.25489787664264, -1867.8126250202768, 0.0, 0.04800000227987766, 0.9760000463575125, 0.0, 0.0, 0.0, 0.0, 0.0, 1.756485639669274E9, 0.0, 2025-08-29 13:40:39.669
45.0, -1000.8121877424419, 907.8607142437249, 260.3194763157517, -1717.7790584978648, 0.0, 0.04800000227987766, 0.9760000463575125, 0.0, 0.0, 0.0, 0.0, 0.0, 1.756485639670001E9, 0.0, 2025-08-29 13:40:39.670
45.0, -1236.8391438960098, 943.5580593207851, 357.8074484607205, -1609.6323714791797, 0.0, 0.04800000227987766, 0.9760000463575125, 0.0, 0.0, 0.0, 0.0, 0.0, 1.756485639670001E9, 0.0, 2025-08-29 13:40:39.670
46.0, -1193.9200520045124, 708.9522651503794, 135.2460020976141, -1840.3692391454242, 0.0, 0.04800000227987766, 0.9760000463575125, 0.0, 0.0, 0.0, 0.0, 0.0, 1.756485639683577E9, 0.0, 2025-08-29 13:40:39.683
46.0, -1259.36456132913, 525.5213920236565, 175.40130792185664, -1815.9439525348134, 0.0, 0.04800000227987766, 0.9760000463575125, 0.0, 0.0, 0.0, 0.0, 0.0, 1.756485639683577E9, 0.0, 2025-08-29 13:40:39.683
47.0, -1478.7059538303874, 369.7470790692605, 385.8454784285277, -1598.6221060096286, 0.0, 0.04800000227987766, 0.9760000463575125, 0.0, 0.0, 0.0, 0.0, 0.0, 1.7564856396992774E9, 0.0, 2025-08-29 13:40:39.699
47.0, -1243.9973124112003, 174.69446683023125, 234.71238131914288, -1739.3695009420626, 0.0, 0.04800000227987766, 0.9760000463575125, 0.0, 0.0, 0.0, 0.0, 0.0, 1.7564856396992774E9, 0.0, 2025-08-29 13:40:39.699
48.0, -1472.9652073984034, 139.44964964780957, 101.6803999952972, -1874.2938716434874, 0.0, 0.04800000227987766, 0.9760000463575125, 0.0, 0.0, 0.0, 0.0, 0.0, 1.7564856397000055E9, 0.0, 2025-08-29 13:40:39.700
48.0, -1578.3181891501881, 368.05664428928867, 328.2323196111247, -1654.806623043958, 0.0, 0.04800000227987766, 0.9760000463575125, 0.0, 0.0, 0.0, 0.0, 0.0, 1.7564856397000055E9, 0.0, 2025-08-29 13:40:39.700
49.0, -1464.0268465043046, 553.929672087077, 290.9455170528963, -1662.9147261478938, 0.0, 0.04800000227987766, 0.9760000463575125, 0.0, 0.0, 0.0, 0.0, 0.0, 1.7564856397136278E9, 0.0, 2025-08-29 13:40:39.713
49.0, -1264.6266005667858, 696.3076634001918, 73.90042312443256, -1885.7117862082087, 0.0, 0.04800000227987766, 0.9760000463575125, 0.0, 0.0, 0.0, 0.0, 0.0, 1.7564856397136278E9, 0.0, 2025-08-29 13:40:39.713
50.0, -1481.7838914939202, 919.1402525100857, 238.2652862770483, -1722.2594586447813, 0.0, 0.04800000227987766, 0.9760000463575125, 0.0, 0.0, 0.0, 0.0, 0.0, 1.7564856397292683E9, 0.0, 2025-08-29 13:40:39.729
50.0, -1257.3861542525701, 932.1438846560195, 361.2556362198666, -1606.9583430108614, 0.0, 0.04800000227987766, 0.9760000463575125, 0.0, 0.0, 0.0, 0.0, 0.0, 1.7564856397292683E9, 0.0, 2025-08-29 13:40:39.729
51.0, -1198.108739954885, 693.8804683289491, 130.8740590494126, -1840.7544488408603, 0.0, 0.04800000227987766, 0.9760000463575125, 0.0, 0.0, 0.0, 0.0, 0.0, 1.756485639730039E9, 0.0, 2025-08-29 13:40:39.730
51.0, -1262.681852589827, 519.8180445912294, 153.26857998408377, -1827.4404049986042, 0.0, 0.04800000227987766, 0.9760000463575125, 0.0, 0.0, 0.0, 0.0, 0.0, 1.756485639730039E9, 0.0, 2025-08-29 13:40:39.730
52.0, -1478.2272466360591, 372.73151923390105, 386.1858093244955, -1604.8752187355421, 0.0, 0.04800000227987766, 0.9760000463575125, 0.0, 0.0, 0.0, 0.0, 0.0, 1.7564856397435944E9, 0.0, 2025-08-29 13:40:39.743
52.0, -1264.5854616672732, 150.61699091549963, 217.7743744198233, -1758.2896548178978, 0.0, 0.04800000227987766, 0.9760000463575125, 0.0, 0.0, 0.0, 0.0, 0.0, 1.7564856397435944E9, 0.0, 2025-08-29 13:40:39.743
53.0, -1463.4209827114828, 144.184362991713, 81.41762203536928, -1885.334056312684, 0.0, 0.04800000227987766, 0.9760000463575125, 0.0, 0.0, 0.0, 0.0, 0.0, 1.7564856397592928E9, 0.0, 2025-08-29 13:40:39.759
53.0, -1560.2843915638514, 373.1653476287611, -137.562870120164, -2124.6820436269045, 0.0, 0.04800000227987766, 0.9760000463575125, 0.0, 0.0, 0.0, 0.0, 0.0, 1.7564856397592928E9, 0.0, 2025-08-29 13:40:39.759
54.0, -1471.4094090168364, 556.0127963623963, -158.3866330734454, -2141.8332248236984, 0.0, 0.04800000227987766, 0.9760000463575125, 0.0, 0.0, 0.0, 0.0, 0.0, 1.7564856397600272E9, 0.0, 2025-08-29 13:40:39.760
54.0, -1256.3838610644452, 700.9638388450257, -366.36246960936114, -2355.863959387876, 0.0, 0.04800000227987766, 0.9760000463575125, 0.0, 0.0, 0.0, 0.0, 0.0, 1.7564856397600272E9, 0.0, 2025-08-29 13:40:39.760
55.0, -1468.4885471514426, 938.6737499786541, -208.3442166815512, -2222.7683997647837, 0.0, 0.04800000227987766, 0.9760000463575125, 0.0, 0.0, 0.0, 0.0, 0.0, 1.7564856397736263E9, 0.0, 2025-08-29 13:40:39.773
55.0, -1238.3164043785073, 955.0208526849747, -101.5476335468702, -2090.955625826493, 0.0, 0.04800000227987766, 0.9760000463575125, 0.0, 0.0, 0.0, 0.0, 0.0, 1.7564856397736263E9, 0.0, 2025-08-29 13:40:39.773
56.0, -1177.715065496508, 719.9625306199305, -318.6189067750238, -2327.0480302292854, 0.0, 0.04800000227987766, 0.9760000463575125, 0.0, 0.0, 0.0, 0.0, 0.0, 1.7564856397892652E9, 0.0, 2025-08-29 13:40:39.789
56.0, -1233.0394055410288, 547.4484254638664, -308.74183099204674, -2294.4847213150933, 0.0, 0.04800000227987766, 0.9760000463575125, 0.0, 0.0, 0.0, 0.0, 0.0, 1.7564856397892652E9, 0.0, 2025-08-29 13:40:39.789
57.0, -1472.8455305998214, 384.78147689113393, -99.09425917593762, -2073.939081028104, 0.0, 0.04800000227987766, 0.9760000463575125, 0.0, 0.0, 0.0, 0.0, 0.0, 1.7564856397899995E9, 0.0, 2025-08-29 13:40:39.789
57.0, -1261.9002134990878, 162.98110016901046, -235.29767566220835, -2229.9602273795754, 0.0, 0.04800000227987766, 0.9760000463575125, 0.0, 0.0, 0.0, 0.0, 0.0, 1.7564856397899995E9, 0.0, 2025-08-29 13:40:39.789
58.0, -1456.3338722954504, 149.24070773180574, -359.7765057873912, -2373.415309879929, 0.0, 0.04800000227987766, 0.9760000463575125, 0.0, 0.0, 0.0, 0.0, 0.0, 1.7564856398035772E9, 0.0, 2025-08-29 13:40:39.803
58.0, -1571.2834373335354, 374.2349590160884, -157.41051918501034, -2151.7364799063653, 0.0, 0.04800000227987766, 0.9760000463575125, 0.0, 0.0, 0.0, 0.0, 0.0, 1.7564856398035772E9, 0.0, 2025-08-29 13:40:39.803
59.0, -1480.459966909606, 551.4388987165876, -161.7226238339208, -2163.513424866833, 0.0, 0.04800000227987766, 0.9760000463575125, 0.0, 0.0, 0.0, 0.0, 0.0, 1.7564856398192453E9, 0.0, 2025-08-29 13:40:39.819
59.0, -1249.3491092477925, 704.711218600627, -358.68445500032976, -2375.6255907537416, 0.0, 0.04800000227987766, 0.9760000463575125, 0.0, 0.0, 0.0, 0.0, 0.0, 1.7564856398192453E9, 0.0, 2025-08-29 13:40:39.819
60.0, -1464.6027910974808, 938.1352043850347, -208.87154257530347, -2221.7698464766145, 0.0, 0.04800000227987766, 0.9760000463575125, 0.0, 0.0, 0.0, 0.0, 0.0, 1.7564856398199973E9, 0.0, 2025-08-29 13:40:39.819
60.0, -1254.9813985810615, 946.2395675890148, -99.04938037646934, -2097.298496151343, 0.0, 0.04800000227987766, 0.9760000463575125, 0.0, 0.0, 0.0, 0.0, 0.0, 1.7564856398199973E9, 0.0, 2025-08-29 13:40:39.819
61.0, -1182.90230673505, 708.2491639587097, -329.1280256505124, -2320.7874377034605, 0.0, 0.04800000227987766, 0.9760000463575125, 0.0, 0.0, 0.0, 0.0, 0.0, 1.756485639833593E9, 0.0, 2025-08-29 13:40:39.833
61.0, -1235.7957118083723, 542.7810303191654, -302.07732927100733, -2315.910608161241, 0.0, 0.04800000227987766, 0.9760000463575125, 0.0, 0.0, 0.0, 0.0, 0.0, 1.756485639833593E9, 0.0, 2025-08-29 13:40:39.833
62.0, -997.9623839762062, 386.07548227580264, -80.03198910178617, -2089.3699082452804, 0.0, 0.04800000227987766, 0.9760000463575125, 0.0, 0.0, 0.0, 0.0, 0.0, 1.7564856398493605E9, 0.0, 2025-08-29 13:40:39.849
62.0, -785.2555739963427, 160.26967270113528, -240.67191189853474, -2236.9687998965383, 0.0, 0.04800000227987766, 0.9760000463575125, 0.0, 0.0, 0.0, 0.0, 0.0, 1.7564856398493605E9, 0.0, 2025-08-29 13:40:39.849
63.0, -943.1017915261909, 173.24338564742357, -365.4910729196854, -2366.515194461681, 0.0, 0.04800000227987766, 0.9760000463575125, 0.0, 0.0, 0.0, 0.0, 0.0, 1.7564856398500364E9, 0.0, 2025-08-29 13:40:39.850
63.0, -1070.5164431165904, 405.15271194977686, -145.4615388265811, -2145.442228280939, 0.0, 0.04800000227987766, 0.9760000463575125, 0.0, 0.0, 0.0, 0.0, 0.0, 1.7564856398500364E9, 0.0, 2025-08-29 13:40:39.850
64.0, -983.5375898471102, 580.909310367424, -149.3136357809417, -2127.8310393895954, 0.0, 0.04800000227987766, 0.9760000463575125, 0.0, 0.0, 0.0, 0.0, 0.0, 1.756485639863593E9, 0.0, 2025-08-29 13:40:39.863
64.0, -761.5857471767813, 702.6318342252634, 86.9302345700562, -2365.9280301686376, 0.0, 0.04800000227987766, 0.9760000463575125, 0.0, 0.0, 0.0, 0.0, 0.0, 1.756485639863593E9, 0.0, 2025-08-29 13:40:39.863
65.0, -982.3670011609793, 928.3815453005955, 251.76632511708885, -2221.9643212743104, 0.0, 0.04800000227987766, 0.9760000463575125, 0.0, 0.0, 0.0, 0.0, 0.0, 1.756485639879242E9, 0.0, 2025-08-29 13:40:39.879
65.0, -785.6707028914243, 933.0713798450306, 406.3363902857527, -2098.5925015360117, 0.0, 0.04800000227987766, 0.9760000463575125, 0.0, 0.0, 0.0, 0.0, 0.0, 1.756485639879242E9, 0.0, 2025-08-29 13:40:39.879
66.0, -700.2887869030237, 707.5124036674388, 170.53569807950407, -2333.518057152629, 0.0, 0.04800000227987766, 0.9760000463575125, 0.0, 0.0, 0.0, 0.0, 0.0, 1.7564856398800185E9, 0.0, 2025-08-29 13:40:39.880
66.0, -732.7847776180133, 543.18493951438, 186.99499778449535, -2308.636502747424, 0.0, 0.04800000227987766, 0.9760000463575125, 0.0, 0.0, 0.0, 0.0, 0.0, 1.7564856398800185E9, 0.0, 2025-08-29 13:40:39.880
67.0, -502.7117421939038, 385.0544895878993, 420.4245934188366, -2552.9024585033767, 0.0, 0.04800000227987766, 0.9760000463575125, 0.0, 0.0, 0.0, 0.0, 0.0, 1.7564856399100246E9, 0.0, 2025-08-29 13:40:39.910
67.0, -283.2170137944631, 159.368356811814, 280.2045243801549, -2735.3908768412657, 0.0, 0.04800000227987766, 0.9760000463575125, 0.0, 0.0, 0.0, 0.0, 0.0, 1.7564856399100246E9, 0.0, 2025-08-29 13:40:39.910
68.0, -455.2411920563318, 154.2933125719428, 137.4039243720472, -2863.0299224290065, 0.0, 0.04800000227987766, 0.9760000463575125, 0.0, 0.0, 0.0, 0.0, 0.0, 1.7564856399107E9, 0.0, 2025-08-29 13:40:39.910
68.0, -571.7727347756736, 389.1608997392468, -79.35880710976198, -3095.37307712622, 0.0, 0.04800000227987766, 0.9760000463575125, 0.0, 0.0, 0.0, 0.0, 0.0, 1.7564856399107E9, 0.0, 2025-08-29 13:40:39.910
69.0, -495.3964978805743, 560.5492950086482, -85.63809913536534, -3100.979187159799, 0.0, 0.04800000227987766, 0.9760000463575125, 0.0, 0.0, 0.0, 0.0, 0.0, 1.7564856399114563E9, 0.0, 2025-08-29 13:40:39.911
69.0, -729.5497641563416, 718.7283636345528, -306.04910302395, -3336.7574399663135, 0.0, 0.04800000227987766, 0.9760000463575125, 0.0, 0.0, 0.0, 0.0, 0.0, 1.7564856399114563E9, 0.0, 2025-08-29 13:40:39.911
70.0, -951.58014472574, 956.9656006619334, -182.11255839234218, -3201.2197256721556, 0.0, 0.04800000227987766, 0.9760000463575125, 0.0, 0.0, 0.0, 0.0, 0.0, 1.7564856399236436E9, 0.0, 2025-08-29 13:40:39.923
70.0, -754.8726267563179, 954.5271858908236, -45.79320500744507, -3081.7037427881733, 0.0, 0.04800000227987766, 0.9760000463575125, 0.0, 0.0, 0.0, 0.0, 0.0, 1.7564856399236436E9, 0.0, 2025-08-29 13:40:39.923
71.0, -678.9975364552811, 714.1582058886997, -262.49048824002966, -3314.3741387315094, 0.0, 0.04800000227987766, 0.9760000463575125, 0.0, 0.0, 0.0, 0.0, 0.0, 1.7564856399393122E9, 0.0, 2025-08-29 13:40:39.939
71.0, -719.7736656721681, 572.9956820611842, -265.4001304055564, -3329.3898370536044, 0.0, 0.04800000227987766, 0.9760000463575125, 0.0, 0.0, 0.0, 0.0, 0.0, 1.7564856399393122E9, 0.0, 2025-08-29 13:40:39.939
72.0, -502.371411297936, 393.7572367847897, -509.6586063615978, -3101.218540756963, 0.0, 0.04800000227987766, 0.9760000463575125, 0.0, 0.0, 0.0, 0.0, 0.0, 1.7564856399400256E9, 0.0, 2025-08-29 13:40:39.940
72.0, -279.05824504373595, 163.6692417608574, -656.8835080172867, -3250.0441195936874, 0.0, 0.04800000227987766, 0.9760000463575125, 0.0, 0.0, 0.0, 0.0, 0.0, 1.7564856399400256E9, 0.0, 2025-08-29 13:40:39.940
73.0, -447.7052936456166, 165.35967654082924, -826.9778979020193, -3382.387959325686, 0.0, 0.04800000227987766, 0.9760000463575125, 0.0, 0.0, 0.0, 0.0, 0.0, 1.756485639953611E9, 0.0, 2025-08-29 13:40:39.953
73.0, -581.6834696582519, 393.00177699374035, -595.0741814495996, -3623.2206869223155, 0.0, 0.04800000227987766, 0.9760000463575125, 0.0, 0.0, 0.0, 0.0, 0.0, 1.756485639953611E9, 0.0, 2025-08-29 13:40:39.953
74.0, -501.0026079141535, 560.0967671140097, -574.1831002971157, -3627.039124777075, 0.0, 0.04800000227987766, 0.9760000463575125, 0.0, 0.0, 0.0, 0.0, 0.0, 1.756485639969296E9, 0.0, 2025-08-29 13:40:39.969
74.0, -725.3573363060132, 724.1250392706133, -802.2945581944659, -3855.71904746769, 0.0, 0.04800000227987766, 0.9760000463575125, 0.0, 0.0, 0.0, 0.0, 0.0, 1.756485639969296E9, 0.0, 2025-08-29 13:40:39.969
75.0, -947.1371435783803, 960.7167203174904, -675.9569977913052, -3714.5789630399086, 0.0, 0.04800000227987766, 0.9760000463575125, 0.0, 0.0, 0.0, 0.0, 0.0, 1.7564856399700232E9, 0.0, 2025-08-29 13:40:39.970
75.0, -784.0064474111423, 950.0879246434197, -559.5152126708999, -3584.247189484071, 0.0, 0.04800000227987766, 0.9760000463575125, 0.0, 0.0, 0.0, 0.0, 0.0, 1.7564856399700232E9, 0.0, 2025-08-29 13:40:39.970
76.0, -694.2750277742743, 705.7546506882645, -799.6392292259261, -3816.3379009342752, 0.0, 0.04800000227987766, 0.9760000463575125, 0.0, 0.0, 0.0, 0.0, 0.0, 1.7564856399836173E9, 0.0, 2025-08-29 13:40:39.983
76.0, -721.2210069550201, 560.1192065137438, -806.7824381412938, -3829.4948689783923, 0.0, 0.04800000227987766, 0.9760000463575125, 0.0, 0.0, 0.0, 0.0, 0.0, 1.7564856399836173E9, 0.0, 2025-08-29 13:40:39.983
77.0, -522.9446009541862, 389.18333913898095, -1046.7213296485133, -3586.6631648554467, 0.0, 0.04800000227987766, 0.9760000463575125, 0.0, 0.0, 0.0, 0.0, 0.0, 1.7564856399992657E9, 0.0, 2025-08-29 13:40:39.999
77.0, -297.06212343042716, 161.406602287665, -1175.1270547271706, -3710.9961388823576, 0.0, 0.04800000227987766, 0.9760000463575125, 0.0, 0.0, 0.0, 0.0, 0.0, 1.7564856399992657E9, 0.0, 2025-08-29 13:40:39.999
78.0, -435.5954975890927, 174.6421082308516, -1321.3721025944687, -3851.5976777165197, 0.0, 0.04800000227987766, 0.9760000463575125, 0.0, 0.0, 0.0, 0.0, 0.0, 1.7564856399999952E9, 0.0, 2025-08-29 13:40:39.999
78.0, -585.3111726152711, 391.3188220136799, -1110.164992496837, -3648.5809485218488, 0.0, 0.04800000227987766, 0.9760000463575125, 0.0, 0.0, 0.0, 0.0, 0.0, 1.7564856399999952E9, 0.0, 2025-08-29 13:40:39.999
79.0, -524.8070711321197, 547.1791526670568, -1088.9148809486069, -3635.614715375472, 0.0, 0.04800000227987766, 0.9760000463575125, 0.0, 0.0, 0.0, 0.0, 0.0, 1.756485640013589E9, 0.0, 2025-08-29 13:40:40.013
79.0, -729.4300873577595, 715.5232693725266, -1317.9388744351454, -3843.5082741123624, 0.0, 0.04800000227987766, 0.9760000463575125, 0.0, 0.0, 0.0, 0.0, 0.0, 1.756485640013589E9, 0.0, 2025-08-29 13:40:40.013
80.0, -956.7486864645034, 953.9587210975587, -1200.9697634209879, -3716.8603020128794, 0.0, 0.04800000227987766, 0.9760000463575125, 0.0, 0.0, 0.0, 0.0, 0.0, 1.756485640029294E9, 0.0, 2025-08-29 13:40:40.029
80.0, -796.0302257686853, 937.046893497929, -1057.6231380193494, -3575.043295693118, 0.0, 0.04800000227987766, 0.9760000463575125, 0.0, 0.0, 0.0, 0.0, 0.0, 1.756485640029294E9, 0.0, 2025-08-29 13:40:40.029
81.0, -692.5172747951001, 705.3881404926069, -1276.515742525924, -3331.659956326708, 0.0, 0.04800000227987766, 0.9760000463575125, 0.0, 0.0, 0.0, 0.0, 0.0, 1.7564856400300055E9, 0.0, 2025-08-29 13:40:40.030
81.0, -707.7237080149353, 569.6709110005759, -1302.5342265176587, -3343.0778708914295, 0.0, 0.04800000227987766, 0.9760000463575125, 0.0, 0.0, 0.0, 0.0, 0.0, 1.7564856400300055E9, 0.0, 2025-08-29 13:40:40.030
82.0, -534.2540584201925, 382.5786758172326, -1086.4689863775857, -3098.4435349898413, 0.0, 0.04800000227987766, 0.9760000463575125, 0.0, 0.0, 0.0, 0.0, 0.0, 1.7564856400437033E9, 0.0, 2025-08-29 13:40:40.043
82.0, -303.44613265478984, 149.2220082320273, -1202.5330416024663, -3224.998009590432, 0.0, 0.04800000227987766, 0.9760000463575125, 0.0, 0.0, 0.0, 0.0, 0.0, 1.7564856400437033E9, 0.0, 2025-08-29 13:40:40.043
83.0, -424.28230022313073, 173.85298934020102, -1318.6457155267708, -3359.137001301162, 0.0, 0.04800000227987766, 0.9760000463575125, 0.0, 0.0, 0.0, 0.0, 0.0, 1.7564856400592692E9, 0.0, 2025-08-29 13:40:40.059
83.0, -580.6101183709688, 404.5917269564234, -1109.282376107294, -3132.701018583961, 0.0, 0.04800000227987766, 0.9760000463575125, 0.0, 0.0, 0.0, 0.0, 0.0, 1.7564856400592692E9, 0.0, 2025-08-29 13:40:40.059
84.0, -543.7309649079107, 546.1207609795965, -1116.2946885242127, -3143.3933925572783, 0.0, 0.04800000227987766, 0.9760000463575125, 0.0, 0.0, 0.0, 0.0, 0.0, 1.756485640060007E9, 0.0, 2025-08-29 13:40:40.060
84.0, -727.4030615817755, 708.5932347546332, -1307.4484550594352, -3361.754931270145, 0.0, 0.04800000227987766, 0.9760000463575125, 0.0, 0.0, 0.0, 0.0, 0.0, 1.756485640060007E9, 0.0, 2025-08-29 13:40:40.060
85.0, -956.8683632630855, 948.6705025602132, -1207.529547943268, -3259.9473746763542, 0.0, 0.04800000227987766, 0.9760000463575125, 0.0, 0.0, 0.0, 0.0, 0.0, 1.7564856400735958E9, 0.0, 2025-08-29 13:40:40.073
85.0, -806.1915339482948, 933.8904179353267, -1065.4956274260767, -3086.733908228576, 0.0, 0.04800000227987766, 0.9760000463575125, 0.0, 0.0, 0.0, 0.0, 0.0, 1.7564856400735958E9, 0.0, 2025-08-29 13:40:40.073
86.0, -689.0653471359983, 716.3198680630885, -1273.5537417610176, -3304.0146158542484, 0.0, 0.04800000227987766, 0.9760000463575125, 0.0, 0.0, 0.0, 0.0, 0.0, 1.7564856400892956E9, 0.0, 2025-08-29 13:40:40.089
