Sample Index, EXG Channel 0, EXG Channel 1, EXG Channel 2, EXG Channel 3, Accel Channel 0, Accel Channel 1, Accel Channel 2, Other, Other, Other, Other, Other, Timestamp, Marker Channel, Timestamp (Formatted)
1.0, -7.635005759540945, 62.976175353862345, 5.968880329281092, 30.18099264241755, 0.0, 0.04800000227987766, 0.0, 0.0, 0.0, 0.0, 0.0, 0.0, 1.7564858356373212E9, 0.0, 2025-08-29 13:43:55.637
1.0, 98.89230457833037, 75.37768360693008, 189.32495545689017, 190.1252940474078, 0.0, 0.04800000227987766, 0.0, 0.0, 0.0, 0.0, 0.0, 0.0, 1.7564858356373212E9, 0.0, 2025-08-29 13:43:55.637
0.0, -503.94590917928144, -80.69582134392112, -187.26240063132718, -165.52610208885744, 0.0, 0.04800000227987766, 0.0, 0.0, 0.0, 0.0, 0.0, 0.0, 1.7564858356631932E9, 0.0, 2025-08-29 13:43:55.663
1.0, -530.6693643126637, 16.377021905966103, -235.84744095569476, -197.22923401324078, 0.0, 0.04800000227987766, 0.0, 0.0, 0.0, 0.0, 0.0, 0.0, 1.7564858356766713E9, 0.0, 2025-08-29 13:43:55.676
1.0, -417.65706745162606, 73.30951893143356, -437.8207380627282, -404.9844164517708, 0.0, 0.04800000227987766, 0.0, 0.0, 0.0, 0.0, 0.0, 0.0, 1.7564858356766713E9, 0.0, 2025-08-29 13:43:55.676
2.0, -463.27262721117586, -73.8854635246098, -284.1968675828539, -248.7276564030908, 0.0, 0.04800000227987766, 0.0, 0.0, 0.0, 0.0, 0.0, 0.0, 1.7564858356933491E9, 0.0, 2025-08-29 13:43:55.693
2.0, -219.19927630294114, -31.44507882744074, -169.32958034379408, -145.65227372432128, 0.0, 0.04800000227987766, 0.0, 0.0, 0.0, 0.0, 0.0, 0.0, 1.7564858356933491E9, 0.0, 2025-08-29 13:43:55.693
3.0, -343.9604688747786, 92.03893790952861, -390.2379909264855, -362.1924811587669, 0.0, 0.04800000227987766, 0.0, 0.0, 0.0, 0.0, 0.0, 0.0, 1.7564858356940968E9, 0.0, 2025-08-29 13:43:55.694
3.0, -301.5443935273215, -24.705779107287526, -360.79749847529456, -333.04744080407545, 0.0, 0.04800000227987766, 0.0, 0.0, 0.0, 0.0, 0.0, 0.0, 1.7564858356940968E9, 0.0, 2025-08-29 13:43:55.694
4.0, -422.03649029973894, -99.70199291873723, -163.83192740892991, -143.3821544512175, 0.0, 0.04800000227987766, 0.0, 0.0, 0.0, 0.0, 0.0, 0.0, 1.756485835706374E9, 0.0, 2025-08-29 13:43:55.706
4.0, -395.97686740849167, 49.310580915771425, -320.36917995428666, -301.3517886796035, 0.0, 0.04800000227987766, 0.0, 0.0, 0.0, 0.0, 0.0, 0.0, 1.756485835706374E9, 0.0, 2025-08-29 13:43:55.706
5.0, -585.9600452575833, 28.90568675752729, -434.8250781982206, -411.8097338709049, 0.0, 0.04800000227987766, 0.0, 0.0, 0.0, 0.0, 0.0, 0.0, 1.7564858357220972E9, 0.0, 2025-08-29 13:43:55.722
5.0, -518.135089611169, -107.1256943307817, -216.31394348712638, -180.71757570886984, 0.0, 0.04800000227987766, 0.0, 0.0, 0.0, 0.0, 0.0, 0.0, 1.7564858357220972E9, 0.0, 2025-08-29 13:43:55.722
6.0, -522.935251204297, 11.29823776613921, -241.22167719202116, -204.7875718236901, 0.0, 0.04800000227987766, 0.0, 0.0, 0.0, 0.0, 0.0, 0.0, 1.756485835722846E9, 0.0, 2025-08-29 13:43:55.722
6.0, -421.96169230062515, 66.87315110769123, -452.3502493905835, -410.698983584065, 0.0, 0.04800000227987766, 0.0, 0.0, 0.0, 0.0, 0.0, 0.0, 1.756485835722846E9, 0.0, 2025-08-29 13:43:55.722
7.0, -459.61126515455544, -80.39662934746593, -275.50160018587485, -253.92611734149978, 0.0, 0.04800000227987766, 0.0, 0.0, 0.0, 0.0, 0.0, 0.0, 1.7564858357363796E9, 0.0, 2025-08-29 13:43:55.736
7.0, -228.3283720947802, -51.81631388608366, -159.43754496099427, -156.29602899821475, 0.0, 0.04800000227987766, 0.0, 0.0, 0.0, 0.0, 0.0, 0.0, 1.7564858357363796E9, 0.0, 2025-08-29 13:43:55.736
8.0, -355.2661864408292, 67.28080020286143, -394.7520501730032, -383.3565750080161, 0.0, 0.04800000227987766, 0.0, 0.0, 0.0, 0.0, 0.0, 0.0, 1.7564858357520995E9, 0.0, 2025-08-29 13:43:55.752
8.0, -306.34642507042736, -34.73993068840355, -365.36391632119194, -343.87445117579773, 0.0, 0.04800000227987766, 0.0, 0.0, 0.0, 0.0, 0.0, 0.0, 1.7564858357520995E9, 0.0, 2025-08-29 13:43:55.752
9.0, -418.18813324533403, -101.46348579786718, -163.5402152123861, -141.4935049735941, 0.0, 0.04800000227987766, 0.0, 0.0, 0.0, 0.0, 0.0, 0.0, 1.7564858357528973E9, 0.0, 2025-08-29 13:43:55.752
9.0, -387.3713576104492, 62.32917266152799, -330.7324427315034, -304.7214385396801, 0.0, 0.04800000227987766, 0.0, 0.0, 0.0, 0.0, 0.0, 0.0, 1.7564858357528973E9, 0.0, 2025-08-29 13:43:55.752
10.0, -583.8582214824855, 32.855021110735834, -430.6775291473605, -403.6118731680326, 0.0, 0.04800000227987766, 0.9760000463575125, 0.0, 0.0, 0.0, 0.0, 0.0, 1.756485835766378E9, 0.0, 2025-08-29 13:43:55.766
10.0, -514.7168210516684, -89.97451313398778, -202.6707884487696, -179.98455531755462, 0.0, 0.04800000227987766, 0.9760000463575125, 0.0, 0.0, 0.0, 0.0, 0.0, 1.756485835766378E9, 0.0, 2025-08-29 13:43:55.766
11.0, -533.2124962825328, 15.101716021075845, -247.19055752130225, -218.3821081626229, 0.0, 0.01600000075995922, 0.9760000463575125, 0.0, 0.0, 0.0, 0.0, 0.0, 1.756485835782106E9, 0.0, 2025-08-29 13:43:55.782
11.0, -423.4277330832556, 59.400830996222794, -452.8177368850447, -419.0726195848547, 0.0, 0.01600000075995922, 0.9760000463575125, 0.0, 0.0, 0.0, 0.0, 0.0, 1.756485835782106E9, 0.0, 2025-08-29 13:43:55.782
12.0, -463.8074329048395, -88.88994214683771, -291.4934123964049, -262.1763366437517, 0.0, 0.01600000075995922, 0.9760000463575125, 0.0, 0.0, 0.0, 0.0, 0.0, 1.7564858357828329E9, 0.0, 2025-08-29 13:43:55.782
12.0, -235.63987650815398, -54.46790295466781, -181.0317273051478, -154.48591741966084, 0.0, 0.01600000075995922, 0.9760000463575125, 0.0, 0.0, 0.0, 0.0, 0.0, 1.7564858357828329E9, 0.0, 2025-08-29 13:43:55.782
13.0, -352.0797916785814, 76.56323189288378, -407.7781217186712, -367.0169521016069, 0.0, 0.01600000075995922, 0.9760000463575125, 0.0, 0.0, 0.0, 0.0, 0.0, 1.7564858357964387E9, 0.0, 2025-08-29 13:43:55.796
13.0, -301.5443935273215, -32.32395531702787, -370.43148076115176, -334.64811798511073, 0.0, 0.01600000075995922, 0.9760000463575125, 0.0, 0.0, 0.0, 0.0, 0.0, 1.7564858357964387E9, 0.0, 2025-08-29 13:43:55.796
14.0, -403.6698416173458, -92.61862240266055, -152.77304323995486, -123.69532108446583, 0.0, 0.01600000075995922, 0.9760000463575125, 0.0, 0.0, 0.0, 0.0, 0.0, 1.756485835812072E9, 0.0, 2025-08-29 13:43:55.812
14.0, -379.68586320150644, 56.932497025467455, -317.9195454833098, -288.1948206354864, 0.0, 0.01600000075995922, 0.9760000463575125, 0.0, 0.0, 0.0, 0.0, 0.0, 1.756485835812072E9, 0.0, 2025-08-29 13:43:55.812
15.0, -582.9643853930756, 21.051896850578487, -428.620584171731, -405.9493106403388, 0.0, 0.01600000075995922, 0.9760000463575125, 0.0, 0.0, 0.0, 0.0, 0.0, 1.7564858358128052E9, 0.0, 2025-08-29 13:43:55.812
15.0, -511.05171909509227, -110.79827608726919, -219.0104113551788, -177.22824905021116, 0.0, 0.01600000075995922, 0.9760000463575125, 0.0, 0.0, 0.0, 0.0, 0.0, 1.7564858358128052E9, 0.0, 2025-08-29 13:43:55.812
16.0, -523.9263246925548, 16.021731410175562, -252.96870295284316, -212.64884153055027, 0.0, 0.01600000075995922, 0.9760000463575125, 0.0, 0.0, 0.0, 0.0, 0.0, 1.7564858358264E9, 0.0, 2025-08-29 13:43:55.826
16.0, -430.7579369964078, 73.41049623023719, -451.7930042971857, -416.01712132105604, 0.0, 0.01600000075995922, 0.9760000463575125, 0.0, 0.0, 0.0, 0.0, 0.0, 1.7564858358264E9, 0.0, 2025-08-29 13:43:55.826
17.0, -452.86448563449085, -62.32917266152799, -263.05895303329453, -253.64936474477872, 0.0, 0.01600000075995922, 0.9760000463575125, 0.0, 0.0, 0.0, 0.0, 0.0, 1.7564858358420746E9, 0.0, 2025-08-29 13:43:55.842
17.0, -211.42402429506183, -24.279430512338877, -165.88139258464798, -136.61667543137446, 0.0, 0.01600000075995922, 0.9760000463575125, 0.0, 0.0, 0.0, 0.0, 0.0, 1.7564858358420746E9, 0.0, 2025-08-29 13:43:55.842
18.0, -347.53955313237384, 86.81055777147412, -398.74626332568005, -376.00019179517403, 0.0, 0.01600000075995922, 0.9760000463575125, 0.0, 0.0, 0.0, 0.0, 0.0, 1.7564858358427887E9, 0.0, 2025-08-29 13:43:55.842
18.0, -301.0021080337465, -34.33228159323335, -366.80377780413255, -342.83475898811594, 0.0, 0.01600000075995922, 0.9760000463575125, 0.0, 0.0, 0.0, 0.0, 0.0, 1.7564858358427887E9, 0.0, 2025-08-29 13:43:55.842
19.0, -412.36884891428053, -92.22219300735742, -169.45299704233184, -143.32979585183784, 0.0, 0.01600000075995922, 0.9760000463575125, 0.0, 0.0, 0.0, 0.0, 0.0, 1.75648583585645E9, 0.0, 2025-08-29 13:43:55.856
19.0, -388.20161540061235, 50.481169601902366, -324.38209260674194, -294.25719846365973, 0.0, 0.01600000075995922, 0.9760000463575125, 0.0, 0.0, 0.0, 0.0, 0.0, 1.75648583585645E9, 0.0, 2025-08-29 13:43:55.856
20.0, -582.4931579986587, 14.641708326525986, -412.37819866416976, -393.25609019072726, 0.0, 0.01600000075995922, 0.49600002355873585, 0.0, 0.0, 0.0, 0.0, 0.0, 1.7564858358721383E9, 0.0, 2025-08-29 13:43:55.872
20.0, -510.7749664983712, -120.48835687246174, -204.36870302865282, -176.0651401639916, 0.0, 0.01600000075995922, 0.49600002355873585, 0.0, 0.0, 0.0, 0.0, 0.0, 1.7564858358721383E9, 0.0, 2025-08-29 13:43:55.872
21.0, -538.2838006224483, -8.500792599283159, -247.27657522028312, -213.0078719262965, 0.0, 0.03200000151991844, 0.49600002355873585, 0.0, 0.0, 0.0, 0.0, 0.0, 1.7564858358728464E9, 0.0, 2025-08-29 13:43:55.872
21.0, -421.8756746016443, 53.18511726986617, -435.43094199104235, -400.5451552043669, 0.0, 0.03200000151991844, 0.49600002355873585, 0.0, 0.0, 0.0, 0.0, 0.0, 1.7564858358728464E9, 0.0, 2025-08-29 13:43:55.872
22.0, -452.5503340382129, -75.48988060560077, -285.2627390702255, -247.89365871297196, 0.0, 0.03200000151991844, 0.49600002355873585, 0.0, 0.0, 0.0, 0.0, 0.0, 1.7564858358864381E9, 0.0, 2025-08-29 13:43:55.886
22.0, -221.48435517586768, -34.451958391815424, -175.42561727156863, -157.81816828018054, 0.0, 0.03200000151991844, 0.49600002355873585, 0.0, 0.0, 0.0, 0.0, 0.0, 1.7564858358864381E9, 0.0, 2025-08-29 13:43:55.886
23.0, -344.83560546441004, 77.60292408056557, -402.6918577789329, -379.73261195095256, 0.0, 0.03200000151991844, 0.49600002355873585, 0.0, 0.0, 0.0, 0.0, 0.0, 1.756485835902101E9, 0.0, 2025-08-29 13:43:55.902
23.0, -312.83141159359366, -44.504809472709894, -378.18055346934125, -350.2248013005592, 0.0, 0.03200000151991844, 0.49600002355873585, 0.0, 0.0, 0.0, 0.0, 0.0, 1.756485835902101E9, 0.0, 2025-08-29 13:43:55.902
24.0, -412.0771367177367, -91.18624071963131, -146.9425392090343, -131.38455539336428, 0.0, 0.03200000151991844, 0.49600002355873585, 0.0, 0.0, 0.0, 0.0, 0.0, 1.7564858359028068E9, 0.0, 2025-08-29 13:43:55.902
24.0, -377.27736763004214, 60.63125808164477, -309.8413615790196, -286.09673676034436, 0.0, 0.03200000151991844, 0.49600002355873585, 0.0, 0.0, 0.0, 0.0, 0.0, 1.7564858359028068E9, 0.0, 2025-08-29 13:43:55.902
25.0, -586.5023307511583, 11.64604846201837, -433.5161132137291, -417.16153070749715, 0.0, 0.03200000151991844, 0.49600002355873585, 0.0, 0.0, 0.0, 0.0, 0.0, 1.756485835916427E9, 0.0, 2025-08-29 13:43:55.916
25.0, -513.7407071632333, -109.24621760565788, -203.75909933587536, -179.6217850218527, 0.0, 0.03200000151991844, 0.49600002355873585, 0.0, 0.0, 0.0, 0.0, 0.0, 1.756485835916427E9, 0.0, 2025-08-29 13:43:55.916
26.0, -537.5507802311331, -6.200754126533866, -259.6893031732179, -225.51035747816786, 0.0, 0.03200000151991844, 0.49600002355873585, 0.0, 0.0, 0.0, 0.0, 0.0, 1.7564858359484763E9, 0.0, 2025-08-29 13:43:55.948
26.0, -413.22154610417783, 66.72729500941932, -441.7925118156709, -412.8531659585424, 0.0, 0.03200000151991844, 0.49600002355873585, 0.0, 0.0, 0.0, 0.0, 0.0, 1.7564858359484763E9, 0.0, 2025-08-29 13:43:55.948
27.0, -466.56747907213867, -87.08357046823949, -284.267925682012, -257.90163099439815, 0.0, 0.03200000151991844, 0.49600002355873585, 0.0, 0.0, 0.0, 0.0, 0.0, 1.7564858359491942E9, 0.0, 2025-08-29 13:43:55.949
27.0, -244.0770908081904, -68.75432078540325, -190.54603279242292, -165.21943029249087, 0.0, 0.03200000151991844, 0.49600002355873585, 0.0, 0.0, 0.0, 0.0, 0.0, 1.7564858359491942E9, 0.0, 2025-08-29 13:43:55.949
28.0, -361.1266096713953, 52.549334277398884, -415.3925580284558, -387.8332352549769, 0.0, 0.03200000151991844, 0.49600002355873585, 0.0, 0.0, 0.0, 0.0, 0.0, 1.7564858359499764E9, 0.0, 2025-08-29 13:43:55.949
28.0, -311.60472440812737, -49.52001531329006, -365.8912422149442, -350.87180399289355, 0.0, 0.03200000151991844, 0.49600002355873585, 0.0, 0.0, 0.0, 0.0, 0.0, 1.7564858359499764E9, 0.0, 2025-08-29 13:43:55.949
29.0, -429.018883517012, -112.93749886192381, -185.8449785481207, -162.20133102824911, 0.0, 0.03200000151991844, 0.49600002355873585, 0.0, 0.0, 0.0, 0.0, 0.0, 1.7564858359507215E9, 0.0, 2025-08-29 13:43:55.950
29.0, -427.02925674058497, 8.930881094187498, -373.43836032552645, -333.1708575026132, 0.0, 0.03200000151991844, 0.49600002355873585, 0.0, 0.0, 0.0, 0.0, 0.0, 1.7564858359507215E9, 0.0, 2025-08-29 13:43:55.950
30.0, -598.2343969121575, -1.8774297777563334, -442.28617860982195, -426.9264094918035, 0.0, 0.03200000151991844, 0.7360000349581242, 0.0, 0.0, 0.0, 0.0, 0.0, 1.7564858359613817E9, 0.0, 2025-08-29 13:43:55.961
30.0, -527.2230465034954, -131.7304961392656, -219.16748715331778, -199.12910319073126, 0.0, 0.03200000151991844, 0.7360000349581242, 0.0, 0.0, 0.0, 0.0, 0.0, 1.7564858359613817E9, 0.0, 2025-08-29 13:43:55.961
31.0, -524.8295105318539, -5.396675636060536, -248.26764870854095, -233.18463218724355, 0.0, 0.04800000227987766, 0.7360000349581242, 0.0, 0.0, 0.0, 0.0, 0.0, 1.7564858359928362E9, 0.0, 2025-08-29 13:43:55.992
31.0, -428.54204627266154, 46.18028465285897, -451.5985294994898, -438.1872482583858, 0.0, 0.04800000227987766, 0.7360000349581242, 0.0, 0.0, 0.0, 0.0, 0.0, 1.7564858359928362E9, 0.0, 2025-08-29 13:43:55.992
32.0, -462.14504737453535, -83.73636000789702, -279.7389068356715, -268.42570946970955, 0.0, 0.04800000227987766, 0.7360000349581242, 0.0, 0.0, 0.0, 0.0, 0.0, 1.756485835993513E9, 0.0, 2025-08-29 13:43:55.993
32.0, -242.48950327700004, -63.828872543759644, -188.86307781236246, -151.7931894515641, 0.0, 0.04800000227987766, 0.7360000349581242, 0.0, 0.0, 0.0, 0.0, 0.0, 1.756485835993513E9, 0.0, 2025-08-29 13:43:55.993
33.0, -358.7947820490226, 57.92731041368097, -410.34369308827445, -364.892688926775, 0.0, 0.04800000227987766, 0.7360000349581242, 0.0, 0.0, 0.0, 0.0, 0.0, 1.7564858359942653E9, 0.0, 2025-08-29 13:43:55.994
33.0, -314.4638779242523, -39.77009612880647, -380.1926196455024, -343.1077716848813, 0.0, 0.04800000227987766, 0.7360000349581242, 0.0, 0.0, 0.0, 0.0, 0.0, 1.7564858359942653E9, 0.0, 2025-08-29 13:43:55.994
34.0, -427.0012074909173, -106.14584054239094, -187.5503729279153, -147.41002670349553, 0.0, 0.04800000227987766, 0.7360000349581242, 0.0, 0.0, 0.0, 0.0, 0.0, 1.75648583600643E9, 0.0, 2025-08-29 13:43:56.006
34.0, -401.6072867917828, 40.847187316045165, -343.9978678743355, -321.1321195452474, 0.0, 0.04800000227987766, 0.7360000349581242, 0.0, 0.0, 0.0, 0.0, 0.0, 1.75648583600643E9, 0.0, 2025-08-29 13:43:56.006
35.0, -589.267986768391, 28.748610959388316, -429.94450875604525, -391.11312751611695, 0.0, 0.04800000227987766, 0.7360000349581242, 0.0, 0.0, 0.0, 0.0, 0.0, 1.7564858360221064E9, 0.0, 2025-08-29 13:43:56.022
35.0, -514.901946099475, -97.42065394576639, -220.382954638917, -162.65759882284328, 0.0, 0.04800000227987766, 0.7360000349581242, 0.0, 0.0, 0.0, 0.0, 0.0, 1.7564858360221064E9, 0.0, 2025-08-29 13:43:56.022
36.0, -532.0063785468228, -5.415375135838985, -273.05944551480934, -227.88893384998664, 0.0, 0.04800000227987766, 0.7360000349581242, 0.0, 0.0, 0.0, 0.0, 0.0, 1.7564858360228384E9, 0.0, 2025-08-29 13:43:56.022
36.0, -430.4381755501963, 56.01996143627912, -469.3219153895043, -431.4404687383212, 0.0, 0.04800000227987766, 0.7360000349581242, 0.0, 0.0, 0.0, 0.0, 0.0, 1.7564858360228384E9, 0.0, 2025-08-29 13:43:56.022
37.0, -477.8301877886988, -93.26188519503921, -298.2327121165581, -258.8141665835865, 0.0, 0.04800000227987766, 0.7360000349581242, 0.0, 0.0, 0.0, 0.0, 0.0, 1.756485836036399E9, 0.0, 2025-08-29 13:43:56.036
37.0, -245.649718739558, -57.53462091833353, -197.90989580517635, -163.5402152123861, 0.0, 0.04800000227987766, 0.7360000349581242, 0.0, 0.0, 0.0, 0.0, 0.0, 1.756485836036399E9, 0.0, 2025-08-29 13:43:56.036
38.0, -372.0003687925637, 57.17185062263161, -427.24804088799283, -400.2384834080003, 0.0, 0.04800000227987766, 0.7360000349581242, 0.0, 0.0, 0.0, 0.0, 0.0, 1.756485836052114E9, 0.0, 2025-08-29 13:43:56.052
38.0, -320.59731385158375, -43.99618307873607, -386.07922217575833, -363.57250424241647, 0.0, 0.04800000227987766, 0.7360000349581242, 0.0, 0.0, 0.0, 0.0, 0.0, 1.756485836052114E9, 0.0, 2025-08-29 13:43:56.052
39.0, -439.3054783451371, -113.40124645642936, -200.8531970703043, -169.2136434451677, 0.0, 0.04800000227987766, 0.7360000349581242, 0.0, 0.0, 0.0, 0.0, 0.0, 1.7564858360527956E9, 0.0, 2025-08-29 13:43:56.052
39.0, -408.5373214096762, 44.108380077406764, -366.9421541024931, -317.7288105855696, 0.0, 0.04800000227987766, 0.7360000349581242, 0.0, 0.0, 0.0, 0.0, 0.0, 1.7564858360527956E9, 0.0, 2025-08-29 13:43:56.052
40.0, -599.8631233428605, 28.756090759299695, -457.17846023337916, -414.39026484033093, 0.0, 0.04800000227987766, 0.8480000402778387, 0.0, 0.0, 0.0, 0.0, 0.0, 1.7564858360664396E9, 0.0, 2025-08-29 13:43:56.066
40.0, -525.407325075008, -106.33657544013113, -237.388279737439, -206.77345870016143, 0.0, 0.04800000227987766, 0.8480000402778387, 0.0, 0.0, 0.0, 0.0, 0.0, 1.7564858360664396E9, 0.0, 2025-08-29 13:43:56.066
41.0, -548.5180368511938, -15.247572119347751, -291.3026774986647, -260.57191956276074, 0.0, 0.04800000227987766, 0.8480000402778387, 0.0, 0.0, 0.0, 0.0, 0.0, 1.7564858360821242E9, 0.0, 2025-08-29 13:43:56.082
41.0, -449.9791528186761, 44.75164286978543, -485.7251165951602, -446.7067403574474, 0.0, 0.04800000227987766, 0.8480000402778387, 0.0, 0.0, 0.0, 0.0, 0.0, 1.7564858360821242E9, 0.0, 2025-08-29 13:43:56.082
42.0, -492.1091258195229, -96.1939667603001, -325.0664942986332, -283.4189683920704, 0.0, 0.04800000227987766, 0.8480000402778387, 0.0, 0.0, 0.0, 0.0, 0.0, 1.7564858360827885E9, 0.0, 2025-08-29 13:43:56.082
42.0, -274.79101919429377, -87.67447466123849, -249.40831819502637, -203.77031903574243, 0.0, 0.04800000227987766, 0.8480000402778387, 0.0, 0.0, 0.0, 0.0, 0.0, 1.7564858360827885E9, 0.0, 2025-08-29 13:43:56.082
43.0, -382.2850936707109, 41.213697511702776, -466.2364979260601, -428.3400916750543, 0.0, 0.04800000227987766, 0.8480000402778387, 0.0, 0.0, 0.0, 0.0, 0.0, 1.7564858360964935E9, 0.0, 2025-08-29 13:43:56.096
43.0, -326.30440118396655, -49.5050557134673, -407.82674041809514, -368.3707958855666, 0.0, 0.04800000227987766, 0.8480000402778387, 0.0, 0.0, 0.0, 0.0, 0.0, 1.7564858360964935E9, 0.0, 2025-08-29 13:43:56.096
44.0, -460.858521789778, -133.78744111489505, -226.5313501660712, -193.19762186100706, 0.0, 0.04800000227987766, 0.8480000402778387, 0.0, 0.0, 0.0, 0.0, 0.0, 1.7564858361121087E9, 0.0, 2025-08-29 13:43:56.112
44.0, -421.27168075880036, 17.985178886912763, -378.03843727102503, -350.38187709869817, 0.0, 0.04800000227987766, 0.8480000402778387, 0.0, 0.0, 0.0, 0.0, 0.0, 1.7564858361121087E9, 0.0, 2025-08-29 13:43:56.112
45.0, -605.6861475738697, 8.145502103492618, -462.29838327271864, -431.2534737405367, 0.0, 0.04800000227987766, 0.8480000402778387, 0.0, 0.0, 0.0, 0.0, 0.0, 1.7564858361128242E9, 0.0, 2025-08-29 13:43:56.112
45.0, -544.5256936484948, -133.81736031454057, -254.3225467368029, -228.0871485476382, 0.0, 0.04800000227987766, 0.8480000402778387, 0.0, 0.0, 0.0, 0.0, 0.0, 1.7564858361128242E9, 0.0, 2025-08-29 13:43:56.112
46.0, -579.7499413811602, -38.28535584639758, -319.6885181623511, -281.2722658175044, 0.0, 0.04800000227987766, 0.8480000402778387, 0.0, 0.0, 0.0, 0.0, 0.0, 1.7564858361264217E9, 0.0, 2025-08-29 13:43:56.126
46.0, -453.43482037773356, 40.862146915867925, -499.6973828296177, -435.326224792283, 0.0, 0.04800000227987766, 0.8480000402778387, 0.0, 0.0, 0.0, 0.0, 0.0, 1.7564858361264217E9, 0.0, 2025-08-29 13:43:56.126
47.0, -479.63655946729705, -94.36141578201205, -318.2336970795877, -283.411488592159, 0.0, 0.04800000227987766, 0.8480000402778387, 0.0, 0.0, 0.0, 0.0, 0.0, 1.7564858361420982E9, 0.0, 2025-08-29 13:43:56.142
47.0, -259.4462096760981, -78.95676786452532, -235.81378185609356, -201.24962646560743, 0.0, 0.04800000227987766, 0.8480000402778387, 0.0, 0.0, 0.0, 0.0, 0.0, 1.7564858361420982E9, 0.0, 2025-08-29 13:43:56.142
48.0, -369.56195402145386, 52.900884873233736, -442.828464103397, -402.33656728314236, 0.0, 0.04800000227987766, 0.8480000402778387, 0.0, 0.0, 0.0, 0.0, 0.0, 1.7564858361428316E9, 0.0, 2025-08-29 13:43:56.142
48.0, -324.55412800470367, -40.20766442362219, -398.2002379321493, -368.4231544849463, 0.0, 0.04800000227987766, 0.8480000402778387, 0.0, 0.0, 0.0, 0.0, 0.0, 1.7564858361428316E9, 0.0, 2025-08-29 13:43:56.142
49.0, -440.58452412998304, -104.69475935958326, -200.16131557850167, -170.9190378249623, 0.0, 0.04800000227987766, 0.8480000402778387, 0.0, 0.0, 0.0, 0.0, 0.0, 1.7564858361564124E9, 0.0, 2025-08-29 13:43:56.156
49.0, -407.7781217186712, 38.31901494599879, -356.474174126517, -323.7724889139645, 0.0, 0.04800000227987766, 0.8480000402778387, 0.0, 0.0, 0.0, 0.0, 0.0, 1.7564858361564124E9, 0.0, 2025-08-29 13:43:56.156
50.0, -602.7465862086974, 19.152027673088014, -455.9368134480901, -411.05427407985553, 0.0, 0.04800000227987766, 0.9120000433176756, 0.0, 0.0, 0.0, 0.0, 0.0, 1.7564858361720784E9, 0.0, 2025-08-29 13:43:56.172
50.0, -542.1209379769862, -121.34105406235904, -254.2552285376005, -210.55449755536392, 0.0, 0.04800000227987766, 0.9120000433176756, 0.0, 0.0, 0.0, 0.0, 0.0, 1.7564858361720784E9, 0.0, 2025-08-29 13:43:56.172
51.0, -538.0968056246638, -1.166848786175251, -272.9958672155626, -226.11996117094532, 0.0, 0.04800000227987766, 0.9120000433176756, 0.0, 0.0, 0.0, 0.0, 0.0, 1.7564858361728132E9, 0.0, 2025-08-29 13:43:56.172
51.0, -430.3839470008388, 64.47961513604969, -452.7915575853549, -424.68246951838955, 0.0, 0.04800000227987766, 0.9120000433176756, 0.0, 0.0, 0.0, 0.0, 0.0, 1.7564858361728132E9, 0.0, 2025-08-29 13:43:56.172
52.0, -468.3663709508255, -76.46599449403584, -301.3443088796921, -268.6688029668294, 0.0, 0.04800000227987766, 0.9120000433176756, 0.0, 0.0, 0.0, 0.0, 0.0, 1.7564858361864104E9, 0.0, 2025-08-29 13:43:56.186
52.0, -239.35733706410974, -45.18921116460115, -206.02547870902345, -162.90443221991882, 0.0, 0.04800000227987766, 0.9120000433176756, 0.0, 0.0, 0.0, 0.0, 0.0, 1.7564858361864104E9, 0.0, 2025-08-29 13:43:56.186
53.0, -357.75695981131867, 69.25920727942139, -417.78609400009736, -385.18912598630413, 0.0, 0.04800000227987766, 0.9120000433176756, 0.0, 0.0, 0.0, 0.0, 0.0, 1.7564858362021089E9, 0.0, 2025-08-29 13:43:56.202
53.0, -314.2151745771989, -26.11946129053831, -389.4638316356577, -351.4851475856267, 0.0, 0.04800000227987766, 0.9120000433176756, 0.0, 0.0, 0.0, 0.0, 0.0, 1.7564858362021089E9, 0.0, 2025-08-29 13:43:56.202
54.0, -465.3781908862293, -139.67030374519527, -220.83922243351117, -205.0082259210758, 0.0, 0.04800000227987766, 0.9120000433176756, 0.0, 0.0, 0.0, 0.0, 0.0, 1.756485836202838E9, 0.0, 2025-08-29 13:43:56.202
54.0, -428.36814092472196, 17.962739487178624, -397.03712904592976, -363.95023413794115, 0.0, 0.04800000227987766, 0.9120000433176756, 0.0, 0.0, 0.0, 0.0, 0.0, 1.756485836202838E9, 0.0, 2025-08-29 13:43:56.202
55.0, -591.2931425943971, 40.52929581981152, -459.0820693108253, -419.9888950739987, 0.0, 0.04800000227987766, 0.9120000433176756, 0.0, 0.0, 0.0, 0.0, 0.0, 1.7564858362164483E9, 0.0, 2025-08-29 13:43:56.216
55.0, -546.9659783695824, -125.15575201716274, -271.67942243115976, -228.4648784431629, 0.0, 0.04800000227987766, 0.9120000433176756, 0.0, 0.0, 0.0, 0.0, 0.0, 1.7564858362164483E9, 0.0, 2025-08-29 13:43:56.216
56.0, -574.9983984874561, -31.33288182877004, -319.3107882668264, -277.1471561663784, 0.0, 0.04800000227987766, 0.9120000433176756, 0.0, 0.0, 0.0, 0.0, 0.0, 1.7564858362320788E9, 0.0, 2025-08-29 13:43:56.232
56.0, -438.96701739914715, 68.55984598770738, -488.5562208616175, -427.71552838245407, 0.0, 0.04800000227987766, 0.9120000433176756, 0.0, 0.0, 0.0, 0.0, 0.0, 1.7564858362320788E9, 0.0, 2025-08-29 13:43:56.232
57.0, -457.56927977874875, -80.01889945194125, -292.7836778811179, -240.45499770110473, 0.0, 0.04800000227987766, 0.9120000433176756, 0.0, 0.0, 0.0, 0.0, 0.0, 1.7564858362328112E9, 0.0, 2025-08-29 13:43:56.232
57.0, -249.5223851436749, -72.40072324220091, -210.87612895155326, -189.38666380615905, 0.0, 0.04800000227987766, 0.9120000433176756, 0.0, 0.0, 0.0, 0.0, 0.0, 1.7564858362328112E9, 0.0, 2025-08-29 13:43:56.232
58.0, -356.4442549268715, 63.11455165222287, -438.86043025041, -419.79068037634715, 0.0, 0.04800000227987766, 0.9120000433176756, 0.0, 0.0, 0.0, 0.0, 0.0, 1.7564858362464392E9, 0.0, 2025-08-29 13:43:56.246
58.0, -303.6200380027294, -25.984824892133474, -379.76627105055377, -371.489872448612, 0.0, 0.04800000227987766, 0.9120000433176756, 0.0, 0.0, 0.0, 0.0, 0.0, 1.7564858362464392E9, 0.0, 2025-08-29 13:43:56.246
59.0, -407.5294183716178, -68.19707569200546, -176.4391301595606, -164.58364730002359, 0.0, 0.04800000227987766, 0.9120000433176756, 0.0, 0.0, 0.0, 0.0, 0.0, 1.7564858362620847E9, 0.0, 2025-08-29 13:43:56.262
59.0, -389.98180777952075, 75.5534589048475, -338.5974523383193, -313.2110114390962, 0.0, 0.04800000227987766, 0.9120000433176756, 0.0, 0.0, 0.0, 0.0, 0.0, 1.7564858362620847E9, 0.0, 2025-08-29 13:43:56.262
60.0, -577.979098752141, 50.23433620482683, -438.80059185111895, -420.0674329730682, 0.0, 0.04800000227987766, 0.944000044837594, 0.0, 0.0, 0.0, 0.0, 0.0, 1.7564858362627788E9, 0.0, 2025-08-29 13:43:56.262
60.0, -486.0991065907292, -77.4795073820278, -213.55763721978292, -217.0507037783973, 0.0, 0.04800000227987766, 0.944000044837594, 0.0, 0.0, 0.0, 0.0, 0.0, 1.7564858362627788E9, 0.0, 2025-08-29 13:43:56.262
61.0, -523.9562438922003, 20.621808355674148, -252.72186955576763, -280.4532277272083, 0.0, 0.04800000227987766, 0.944000044837594, 0.0, 0.0, 0.0, 0.0, 0.0, 1.7564858362764285E9, 0.0, 2025-08-29 13:43:56.276
61.0, -423.1584602864459, 78.15642927400768, -476.1621924084611, -489.05362755572423, 0.0, 0.04800000227987766, 0.944000044837594, 0.0, 0.0, 0.0, 0.0, 0.0, 1.7564858362764285E9, 0.0, 2025-08-29 13:43:56.276
62.0, -482.4171750843525, -77.56552508100867, -324.6513654035516, -343.8931506755762, 0.0, 0.04800000227987766, 0.944000044837594, 0.0, 0.0, 0.0, 0.0, 0.0, 1.7564858362920828E9, 0.0, 2025-08-29 13:43:56.292
62.0, -245.61044979002327, -45.36498646251857, -213.56885691965, -238.85806042002514, 0.0, 0.04800000227987766, 0.944000044837594, 0.0, 0.0, 0.0, 0.0, 0.0, 1.7564858362920828E9, 0.0, 2025-08-29 13:43:56.292
63.0, -363.0077793491073, 83.46334731113166, -455.6525810514577, -473.3198684421368, 0.0, 0.04800000227987766, 0.944000044837594, 0.0, 0.0, 0.0, 0.0, 0.0, 1.7564858362928193E9, 0.0, 2025-08-29 13:43:56.292
63.0, -321.02179249655455, -20.034644062630832, -419.27083428250626, -437.68610166432336, 0.0, 0.04800000227987766, 0.944000044837594, 0.0, 0.0, 0.0, 0.0, 0.0, 1.7564858362928193E9, 0.0, 2025-08-29 13:43:56.292
64.0, -442.77797545399517, -93.47505949251354, -230.7536972160451, -243.394559066277, 0.0, 0.04800000227987766, 0.944000044837594, 0.0, 0.0, 0.0, 0.0, 0.0, 1.756485836306386E9, 0.0, 2025-08-29 13:43:56.306
64.0, -417.06990315858275, 47.335913739167154, -395.9039393593557, -416.4472098159604, 0.0, 0.04800000227987766, 0.944000044837594, 0.0, 0.0, 0.0, 0.0, 0.0, 1.756485836306386E9, 0.0, 2025-08-29 13:43:56.306
65.0, -607.5542276017368, 35.32709498144686, -489.1396452547051, -511.32473179185763, 0.0, 0.04800000227987766, 0.944000044837594, 0.0, 0.0, 0.0, 0.0, 0.0, 1.7564858363220832E9, 0.0, 2025-08-29 13:43:56.322
65.0, -536.6924731913023, -101.51958429720253, -287.39074214501306, -292.20773328794166, 0.0, 0.04800000227987766, 0.944000044837594, 0.0, 0.0, 0.0, 0.0, 0.0, 1.7564858363220832E9, 0.0, 2025-08-29 13:43:56.322
66.0, -555.8127117147669, 16.747272001579404, -319.73713686177507, -329.34493984794244, 0.0, 0.04800000227987766, 0.944000044837594, 0.0, 0.0, 0.0, 0.0, 0.0, 1.7564858363228135E9, 0.0, 2025-08-29 13:43:56.322
66.0, -456.67918358929455, 72.04169284645468, -528.4833927885629, -524.5677175349556, 0.0, 0.04800000227987766, 0.944000044837594, 0.0, 0.0, 0.0, 0.0, 0.0, 1.7564858363228135E9, 0.0, 2025-08-29 13:43:56.322
67.0, -487.47725972440094, -66.64127731043845, -358.65453580068424, -356.94914142088965, 0.0, 0.04800000227987766, 0.944000044837594, 0.0, 0.0, 0.0, 0.0, 0.0, 1.7564858363364491E9, 0.0, 2025-08-29 13:43:56.336
67.0, -256.95730625558645, -23.35567522328347, -241.47225048905239, -250.67240438004956, 0.0, 0.04800000227987766, 0.944000044837594, 0.0, 0.0, 0.0, 0.0, 0.0, 1.7564858363364491E9, 0.0, 2025-08-29 13:43:56.336
68.0, -376.265724692028, 96.30242385901511, -459.13816781016067, -480.05916816229, 0.0, 0.04800000227987766, 0.944000044837594, 0.0, 0.0, 0.0, 0.0, 0.0, 1.7564858363521068E9, 0.0, 2025-08-29 13:43:56.352
68.0, -309.39070363435894, -2.296298572793603, -430.23622095258906, -442.3796761087142, 0.0, 0.04800000227987766, 0.944000044837594, 0.0, 0.0, 0.0, 0.0, 0.0, 1.7564858363521068E9, 0.0, 2025-08-29 13:43:56.352
69.0, -434.96906434651464, -74.9625547118485, -226.92777956137434, -226.39671376766637, 0.0, 0.04800000227987766, 0.944000044837594, 0.0, 0.0, 0.0, 0.0, 0.0, 1.756485836352812E9, 0.0, 2025-08-29 13:43:56.352
69.0, -424.0148973762989, 62.25811456236988, -390.17815252719447, -385.9894645768218, 0.0, 0.04800000227987766, 0.944000044837594, 0.0, 0.0, 0.0, 0.0, 0.0, 1.756485836352812E9, 0.0, 2025-08-29 13:43:56.352
70.0, -585.8441083589569, 56.491188830696046, -489.2144432538189, -499.7086025294848, 0.0, 0.04800000227987766, 0.9760000463575125, 0.0, 0.0, 0.0, 0.0, 0.0, 1.7564858363664043E9, 0.0, 2025-08-29 13:43:56.366
70.0, -527.9224077952094, -89.23401294276118, -261.3012000541203, -281.5527583141811, 0.0, 0.04800000227987766, 0.9760000463575125, 0.0, 0.0, 0.0, 0.0, 0.0, 1.7564858363664043E9, 0.0, 2025-08-29 13:43:56.366
71.0, -567.1894873799756, 23.535190421156585, -290.8538895039819, -295.6484412471764, 0.0, 0.04800000227987766, 0.9760000463575125, 0.0, 0.0, 0.0, 0.0, 0.0, 1.756485836382055E9, 0.0, 2025-08-29 13:43:56.382
71.0, -441.4615306695923, 85.65118878521025, -493.3320731050335, -508.3365517272614, 0.0, 0.04800000227987766, 0.9760000463575125, 0.0, 0.0, 0.0, 0.0, 0.0, 1.756485836382055E9, 0.0, 2025-08-29 13:43:56.382
72.0, -503.1960592381656, -73.37683713063598, -347.0758055378683, -350.782046393957, 0.0, 0.04800000227987766, 0.9760000463575125, 0.0, 0.0, 0.0, 0.0, 0.0, 1.7564858363827844E9, 0.0, 2025-08-29 13:43:56.382
72.0, -319.3089183168486, -51.363785991445184, -223.51699080178514, -217.48453217325732, 0.0, 0.04800000227987766, 0.9760000463575125, 0.0, 0.0, 0.0, 0.0, 0.0, 1.7564858363827844E9, 0.0, 2025-08-29 13:43:56.382
73.0, -413.63480504928157, 81.44006143510342, -440.2554129338823, -440.09459723578766, 0.0, 0.04800000227987766, 0.9760000463575125, 0.0, 0.0, 0.0, 0.0, 0.0, 1.7564858363963845E9, 0.0, 2025-08-29 13:43:56.396
73.0, -331.2691183751449, -14.843662924133241, -410.5194683861919, -419.0427003852092, 0.0, 0.04800000227987766, 0.9760000463575125, 0.0, 0.0, 0.0, 0.0, 0.0, 1.7564858363963845E9, 0.0, 2025-08-29 13:43:56.396
74.0, -495.66764062736183, -103.61392827238888, -230.45076531963423, -215.1919735004194, 0.0, 0.04800000227987766, 0.9760000463575125, 0.0, 0.0, 0.0, 0.0, 0.0, 1.7564858364120536E9, 0.0, 2025-08-29 13:43:56.412
74.0, -465.5838853837922, 36.69589836522937, -377.6420078757219, -362.6263095536269, 0.0, 0.04800000227987766, 0.9760000463575125, 0.0, 0.0, 0.0, 0.0, 0.0, 1.7564858364120536E9, 0.0, 2025-08-29 13:43:56.412
75.0, -593.26032997109, 31.38898032810539, -489.6931504481472, -474.07906813314185, 0.0, 0.04800000227987766, 0.9760000463575125, 0.0, 0.0, 0.0, 0.0, 0.0, 1.7564858364127858E9, 0.0, 2025-08-29 13:43:56.412
75.0, -536.3184831957333, -104.62370126042515, -255.41459752386436, -266.4884412926622, 0.0, 0.04800000227987766, 0.9760000463575125, 0.0, 0.0, 0.0, 0.0, 0.0, 1.7564858364127858E9, 0.0, 2025-08-29 13:43:56.412
76.0, -594.9993834504858, 1.6006771810352802, -291.9085412914865, -300.9777986840345, 0.0, 0.04800000227987766, 0.9760000463575125, 0.0, 0.0, 0.0, 0.0, 0.0, 1.756485836426407E9, 0.0, 2025-08-29 13:43:56.426
76.0, -425.0957284634933, 66.51786061190069, -513.1834620698355, -520.0910572879948, 0.0, 0.04800000227987766, 0.9760000463575125, 0.0, 0.0, 0.0, 0.0, 0.0, 1.756485836426407E9, 0.0, 2025-08-29 13:43:56.426
77.0, -462.20675572380424, -86.1523353792727, -366.91223490284756, -364.7917116279714, 0.0, 0.04800000227987766, 0.9760000463575125, 0.0, 0.0, 0.0, 0.0, 0.0, 1.7564858364420805E9, 0.0, 2025-08-29 13:43:56.442
77.0, -289.4046782711521, -66.00549431797117, -254.89849132997915, -247.04844132298604, 0.0, 0.04800000227987766, 0.9760000463575125, 0.0, 0.0, 0.0, 0.0, 0.0, 1.7564858364420805E9, 0.0, 2025-08-29 13:43:56.442
78.0, -371.9760594428517, 68.98245468270034, -478.18547828448936, -465.03599004028365, 0.0, 0.04800000227987766, 0.9760000463575125, 0.0, 0.0, 0.0, 0.0, 0.0, 1.7564858364428253E9, 0.0, 2025-08-29 13:43:56.442
78.0, -281.0160826705396, -12.928834146820009, -456.5987757402472, -451.2694183033891, 0.0, 0.04800000227987766, 0.9760000463575125, 0.0, 0.0, 0.0, 0.0, 0.0, 1.7564858364428253E9, 0.0, 2025-08-29 13:43:56.442
79.0, -459.8543586516753, -105.21086555346847, -257.4678025995381, -238.944078119006, 0.0, 0.04800000227987766, 0.9760000463575125, 0.0, 0.0, 0.0, 0.0, 0.0, 1.7564858364564145E9, 0.0, 2025-08-29 13:43:56.456
79.0, -436.48746372852474, 37.00257016159594, -422.97707513859496, -397.1343664447777, 0.0, 0.04800000227987766, 0.9760000463575125, 0.0, 0.0, 0.0, 0.0, 0.0, 1.7564858364564145E9, 0.0, 2025-08-29 13:43:56.456
80.0, -568.4947124645114, 18.05249708611518, -533.5210380288772, -497.8760515511967, 0.0, 0.04800000227987766, 0.9760000463575125, 0.0, 0.0, 0.0, 0.0, 0.0, 1.7564858364720788E9, 0.0, 2025-08-29 13:43:56.472
80.0, -534.4672327176668, -132.94222372490913, -290.8314501042478, -277.83529775822535, 0.0, 0.04800000227987766, 0.9760000463575125, 0.0, 0.0, 0.0, 0.0, 0.0, 1.7564858364720788E9, 0.0, 2025-08-29 13:43:56.472
81.0, -580.9298798171803, -17.820623288862407, -307.5076640066691, -295.55494374828413, 0.0, 0.04800000227987766, 0.9760000463575125, 0.0, 0.0, 0.0, 0.0, 0.0, 1.7564858364728143E9, 0.0, 2025-08-29 13:43:56.472
81.0, -433.8059554602951, 34.96432468574494, -64.584332334809, -533.75291182613, 0.0, 0.04800000227987766, 0.9760000463575125, 0.0, 0.0, 0.0, 0.0, 0.0, 1.7564858364728143E9, 0.0, 2025-08-29 13:43:56.472
82.0, -475.91348906140774, -101.51210449729115, 110.51778359059244, -376.4639393896796, 0.0, 0.04800000227987766, 0.9760000463575125, 0.0, 0.0, 0.0, 0.0, 0.0, 1.7564858364863791E9, 0.0, 2025-08-29 13:43:56.486
82.0, -282.51952245272696, -81.75047313142568, 240.32223125267774, -231.6811924050562, 0.0, 0.04800000227987766, 0.9760000463575125, 0.0, 0.0, 0.0, 0.0, 0.0, 1.7564858364863791E9, 0.0, 2025-08-29 13:43:56.486
83.0, -351.87035728106275, 63.428703248500824, 13.471119640395045, -453.13562838127837, 0.0, 0.04800000227987766, 0.9760000463575125, 0.0, 0.0, 0.0, 0.0, 0.0, 1.7564858365020812E9, 0.0, 2025-08-29 13:43:56.502
83.0, -286.26690220832825, -44.76660246960819, 31.81158902309835, -446.4636468603276, 0.0, 0.04800000227987766, 0.9760000463575125, 0.0, 0.0, 0.0, 0.0, 0.0, 1.7564858365020812E9, 0.0, 2025-08-29 13:43:56.502
84.0, -469.42850253824145, -135.94536338932812, 246.17143478337675, -208.57609047880396, 0.0, 0.04800000227987766, 0.9760000463575125, 0.0, 0.0, 0.0, 0.0, 0.0, 1.75648583650285E9, 0.0, 2025-08-29 13:43:56.502
84.0, -449.41255797538906, 18.030057686381042, 81.80657163076103, -380.25993784470484, 0.0, 0.04800000227987766, 0.9760000463575125, 0.0, 0.0, 0.0, 0.0, 0.0, 1.75648583650285E9, 0.0, 2025-08-29 13:43:56.502
85.0, -586.2966362535954, 2.0793843753635883, -32.361354316584766, -503.07077258965, 0.0, 0.04800000227987766, 0.9760000463575125, 0.0, 0.0, 0.0, 0.0, 0.0, 1.756485836516379E9, 0.0, 2025-08-29 13:43:56.516
85.0, -560.2725424119271, -142.97637530602515, 200.9074256196618, -272.43114232225344, 0.0, 0.04800000227987766, 0.9760000463575125, 0.0, 0.0, 0.0, 0.0, 0.0, 1.756485836516379E9, 0.0, 2025-08-29 13:43:56.516
86.0, -619.9445161549374, -37.91884565073997, 179.4927584733814, -278.7066944479011, 0.0, 0.04800000227987766, 0.9760000463575125, 0.0, 0.0, 0.0, 0.0, 0.0, 1.7564858365484564E9, 0.0, 2025-08-29 13:43:56.548
86.0, -446.4281178107485, 47.46307033766061, -27.132974178530276, -500.71463561756536, 0.0, 0.04800000227987766, 0.9760000463575125, 0.0, 0.0, 0.0, 0.0, 0.0, 1.7564858365484564E9, 0.0, 2025-08-29 13:43:56.548
87.0, -505.0473097162321, -110.95161198545247, 141.46919562388211, -348.0070406268351, 0.0, 0.04800000227987766, 0.9760000463575125, 0.0, 0.0, 0.0, 0.0, 0.0, 1.7564858365491867E9, 0.0, 2025-08-29 13:43:56.549
87.0, -319.8661634102464, -86.01021918095648, 247.44300076831132, -210.34880305780098, 0.0, 0.04800000227987766, 0.9760000463575125, 0.0, 0.0, 0.0, 0.0, 0.0, 1.7564858365491867E9, 0.0, 2025-08-29 13:43:56.549
88.0, -392.5081101995893, 34.384640192613006, 488.01393536804244, -442.6302494057454, 0.0, 0.04800000227987766, 0.9760000463575125, 0.0, 0.0, 0.0, 0.0, 0.0, 1.7564858365499375E9, 0.0, 2025-08-29 13:43:56.549
88.0, -298.9189837584272, -51.655498187989, 542.3808610239066, -424.4057169216685, 0.0, 0.04800000227987766, 0.9760000463575125, 0.0, 0.0, 0.0, 0.0, 0.0, 1.7564858365499375E9, 0.0, 2025-08-29 13:43:56.549
89.0, -476.0743047595024, -137.9574295654893, 760.0841773445718, -205.78986501181498, 0.0, 0.04800000227987766, 0.9760000463575125, 0.0, 0.0, 0.0, 0.0, 0.0, 1.7564858365506902E9, 0.0, 2025-08-29 13:43:56.550
89.0, -437.78146911319345, 18.430226981639862, 574.5215612431057, -367.3311036978848, 0.0, 0.04800000227987766, 0.9760000463575125, 0.0, 0.0, 0.0, 0.0, 0.0, 1.7564858365506902E9, 0.0, 2025-08-29 13:43:56.550
90.0, -565.9478405946866, 17.33443629462272, 469.6136275860481, -499.20745593542233, 0.0, 0.04800000227987766, 0.9760000463575125, 0.0, 0.0, 0.0, 0.0, 0.0, 1.7564858365614085E9, 0.0, 2025-08-29 13:43:56.561
90.0, -541.3411688362248, -130.44023065455258, 713.9113724916242, -254.68531703250483, 0.0, 0.04800000227987766, 0.9760000463575125, 0.0, 0.0, 0.0, 0.0, 0.0, 1.7564858365614085E9, 0.0, 2025-08-29 13:43:56.561
91.0, -588.0843084324151, -22.60021543223411, 682.3952355650254, -282.5924505018629, 0.0, 0.04800000227987766, 0.9760000463575125, 0.0, 0.0, 0.0, 0.0, 0.0, 1.7564858365763533E9, 0.0, 2025-08-29 13:43:56.576
91.0, -406.3139508860186, 55.23458244558424, 469.81558218365535, -485.41844479879364, 0.0, 0.04800000227987766, 0.9760000463575125, 0.0, 0.0, 0.0, 0.0, 0.0, 1.7564858365763533E9, 0.0, 2025-08-29 13:43:56.576
92.0, -473.09360449481755, -101.24657160043716, 629.3784137931652, -334.34892598865554, 0.0, 0.04800000227987766, 0.9760000463575125, 0.0, 0.0, 0.0, 0.0, 0.0, 1.7564858365921388E9, 0.0, 2025-08-29 13:43:56.592
92.0, -291.01283525209874, -80.11613685078919, 752.5183597342111, -214.6347284070216, 0.0, 0.04800000227987766, 0.9760000463575125, 0.0, 0.0, 0.0, 0.0, 0.0, 1.7564858365921388E9, 0.0, 2025-08-29 13:43:56.592
93.0, -351.13359698979184, 58.559353506192565, 519.907802190166, -447.2004071515985, 0.0, 0.04800000227987766, 0.9760000463575125, 0.0, 0.0, 0.0, 0.0, 0.0, 1.7564858365928378E9, 0.0, 2025-08-29 13:43:56.592
93.0, -300.8412923356518, -51.737775987014174, 537.9042007769458, -428.76270037004724, 0.0, 0.04800000227987766, 0.9760000463575125, 0.0, 0.0, 0.0, 0.0, 0.0, 1.7564858365928378E9, 0.0, 2025-08-29 13:43:56.592
94.0, -478.7745125275105, -129.48281626589596, 756.4789137872867, -214.23829901171848, 0.0, 0.04800000227987766, 0.9760000463575125, 0.0, 0.0, 0.0, 0.0, 0.0, 1.756485836606455E9, 0.0, 2025-08-29 13:43:56.606
94.0, -425.18174616247416, 21.70263944286853, 607.9749663467519, -361.9344280618243, 0.0, 0.04800000227987766, 0.9760000463575125, 0.0, 0.0, 0.0, 0.0, 0.0, 1.756485836606455E9, 0.0, 2025-08-29 13:43:56.606
95.0, -552.4168825550005, 23.823162717744708, 495.46381607977673, -468.1288873036392, 0.0, 0.04800000227987766, 0.9760000463575125, 0.0, 0.0, 0.0, 0.0, 0.0, 1.7564858366221075E9, 0.0, 2025-08-29 13:43:56.622
95.0, -546.6443469733931, -145.45592897664756, 708.0172901614569, -247.29527472006157, 0.0, 0.04800000227987766, 0.9760000463575125, 0.0, 0.0, 0.0, 0.0, 0.0, 1.7564858366221075E9, 0.0, 2025-08-29 13:43:56.622
96.0, -580.3726347237825, -23.419253522530198, 686.8008377128281, -274.54418579721823, 0.0, 0.04800000227987766, 0.9760000463575125, 0.0, 0.0, 0.0, 0.0, 0.0, 1.7564858366228397E9, 0.0, 2025-08-29 13:43:56.622
96.0, -395.9020694093779, 63.53716034721583, 483.7691489183344, -483.19694422511384, 0.0, 0.04800000227987766, 0.9760000463575125, 0.0, 0.0, 0.0, 0.0, 0.0, 1.7564858366228397E9, 0.0, 2025-08-29 13:43:56.622
97.0, -464.1926426002756, -102.9033472808078, 648.1863706703298, -313.6448398339562, 0.0, 0.04800000227987766, 0.9760000463575125, 0.0, 0.0, 0.0, 0.0, 0.0, 1.7564858366364453E9, 0.0, 2025-08-29 13:43:56.636
97.0, -277.0256094178185, -63.98220844194293, 768.9813993391581, -187.9580220230855, 0.0, 0.04800000227987766, 0.9760000463575125, 0.0, 0.0, 0.0, 0.0, 0.0, 1.7564858366364453E9, 0.0, 2025-08-29 13:43:56.636
98.0, -328.8737124535255, 88.4149748524651, 546.513450474944, -410.19409709004685, 0.0, 0.04800000227987766, 0.9760000463575125, 0.0, 0.0, 0.0, 0.0, 0.0, 1.756485836652073E9, 0.0, 2025-08-29 13:43:56.652
98.0, -275.0247629415244, -26.14564059022814, 572.5655935662799, -392.4370521004312, 0.0, 0.04800000227987766, 0.9760000463575125, 0.0, 0.0, 0.0, 0.0, 0.0, 1.756485836652073E9, 0.0, 2025-08-29 13:43:56.652
99.0, -454.3679254166782, -111.39666008017957, 783.4024535682984, -179.72650222061202, 0.0, 0.04800000227987766, 0.9760000463575125, 0.0, 0.0, 0.0, 0.0, 0.0, 1.7564858366528425E9, 0.0, 2025-08-29 13:43:56.652
99.0, -393.7366673350334, 70.04458627011627, 631.5961744668894, -324.984216499608, 0.0, 0.04800000227987766, 0.9760000463575125, 0.0, 0.0, 0.0, 0.0, 0.0, 1.7564858366528425E9, 0.0, 2025-08-29 13:43:56.652
100.0, -532.9955820851028, 62.213235762901604, 547.8485947591253, -416.6977831129916, 0.0, 0.04800000227987766, 0.9760000463575125, 0.0, 0.0, 0.0, 0.0, 0.0, 1.7564858366670768E9, 0.0, 2025-08-29 13:43:56.667
100.0, -517.0804378236644, -111.99504407308996, 761.0490715331398, -199.7798457830213, 0.0, 0.04800000227987766, 0.9760000463575125, 0.0, 0.0, 0.0, 0.0, 0.0, 1.7564858366670768E9, 0.0, 2025-08-29 13:43:56.667
0.0, -63.31463629985228, 4.454220847226679, -255.59037282178178, -221.46191577613354, 0.0, 0.04800000227987766, 0.9760000463575125, 0.0, 0.0, 0.0, 0.0, 0.0, 1.7564858366678083E9, 0.0, 2025-08-29 13:43:56.667
1.0, 109.85395134845749, 86.30941117741168, -459.92728670081124, -436.8390143243596, 0.0, 0.04800000227987766, 0.9760000463575125, 0.0, 0.0, 0.0, 0.0, 0.0, 1.7564858366814003E9, 0.0, 2025-08-29 13:43:56.681
1.0, 23.98210846586153, -89.84735653549433, -311.59537465823814, -294.8836317062378, 0.0, 0.04800000227987766, 0.9760000463575125, 0.0, 0.0, 0.0, 0.0, 0.0, 1.7564858366814003E9, 0.0, 2025-08-29 13:43:56.681
2.0, 222.0883490187116, -64.45343583635986, -190.01496699871495, -181.4188069505617, 0.0, 0.04800000227987766, 0.9760000463575125, 0.0, 0.0, 0.0, 0.0, 0.0, 1.7564858366970809E9, 0.0, 2025-08-29 13:43:56.697
2.0, 177.1254018014297, 107.64928032457829, -414.71937603643164, -383.7062556538731, 0.0, 0.04800000227987766, 0.9760000463575125, 0.0, 0.0, 0.0, 0.0, 0.0, 1.7564858366970809E9, 0.0, 2025-08-29 13:43:56.697
3.0, 245.94143093610182, 8.126802603714168, -380.4282333427109, -340.0466635711491, 0.0, 0.04800000227987766, 0.9760000463575125, 0.0, 0.0, 0.0, 0.0, 0.0, 1.7564858366978433E9, 0.0, 2025-08-29 13:43:56.697
3.0, 47.37892258865759, -91.62754891440272, -173.26395509717986, -143.08109250478446, 0.0, 0.04800000227987766, 0.9760000463575125, 0.0, 0.0, 0.0, 0.0, 0.0, 1.7564858366978433E9, 0.0, 2025-08-29 13:43:56.697
4.0, 105.48948810016736, 74.56612531654537, -338.8816847349517, -319.7726659113541, 0.0, 0.04800000227987766, 0.9760000463575125, 0.0, 0.0, 0.0, 0.0, 0.0, 1.7564858367114015E9, 0.0, 2025-08-29 13:43:56.711
4.0, -46.38410920044407, 55.57491334155202, -444.4254013844766, -424.9124733656645, 0.0, 0.04800000227987766, 0.9760000463575125, 0.0, 0.0, 0.0, 0.0, 0.0, 1.7564858367114015E9, 0.0, 2025-08-29 13:43:56.711
5.0, -26.669226584024727, -98.66604063101113, -236.40094614913687, -222.79706006031483, 0.0, 0.04800000227987766, 0.9760000463575125, 0.0, 0.0, 0.0, 0.0, 0.0, 1.7564858367271075E9, 0.0, 2025-08-29 13:43:56.727
5.0, -66.97973825642839, 14.211619831621647, -313.7645166325383, -285.41046511847526, 0.0, 0.04800000227987766, 0.9760000463575125, 0.0, 0.0, 0.0, 0.0, 0.0, 1.7564858367271075E9, 0.0, 2025-08-29 13:43:56.727
6.0, 108.38417066587135, 96.47819915693253, -487.01538207987323, -426.763723843731, 0.0, 0.04800000227987766, 0.9760000463575125, 0.0, 0.0, 0.0, 0.0, 0.0, 1.7564858367278147E9, 0.0, 2025-08-29 13:43:56.727
6.0, 38.653735992033035, -70.90102335996926, -295.25575175182894, -251.28761792276055, 0.0, 0.04800000227987766, 0.9760000463575125, 0.0, 0.0, 0.0, 0.0, 0.0, 1.7564858367278147E9, 0.0, 2025-08-29 13:43:56.727
7.0, 228.85008813859895, -60.608818681910634, -166.59197357622907, -135.81446689087898, 0.0, 0.04800000227987766, 0.9760000463575125, 0.0, 0.0, 0.0, 0.0, 0.0, 1.7564858367414272E9, 0.0, 2025-08-29 13:43:56.741
7.0, 187.85517477430403, 114.0519890487194, -366.5681641069241, -333.7150129461661, 0.0, 0.04800000227987766, 0.9760000463575125, 0.0, 0.0, 0.0, 0.0, 0.0, 1.7564858367414272E9, 0.0, 2025-08-29 13:43:56.741
8.0, 255.033127728384, 17.37557519413531, -311.73749085655436, -269.92353940196335, 0.0, 0.04800000227987766, 0.9760000463575125, 0.0, 0.0, 0.0, 0.0, 0.0, 1.7564858367571037E9, 0.0, 2025-08-29 13:43:56.757
8.0, 56.84460937650874, -90.03809143323451, -117.0009001637809, -49.336760215461254, 0.0, 0.04800000227987766, 0.9760000463575125, 0.0, 0.0, 0.0, 0.0, 0.0, 1.7564858367571037E9, 0.0, 2025-08-29 13:43:56.757
9.0, 153.47240453166887, 98.4566062334925, -249.38213889533654, -190.03927634842694, 0.0, 0.04800000227987766, 0.9760000463575125, 0.0, 0.0, 0.0, 0.0, 0.0, 1.7564858367578373E9, 0.0, 2025-08-29 13:43:56.757
9.0, 1.5950673311017454, 84.08043080382049, -344.1923426720314, -285.23468982055783, 0.0, 0.04800000227987766, 0.9760000463575125, 0.0, 0.0, 0.0, 0.0, 0.0, 1.7564858367578373E9, 0.0, 2025-08-29 13:43:56.757
10.0, 6.148395527154207, -88.81514414772391, -120.10875702695921, -45.656698659062386, 0.0, 0.04800000227987766, 0.9760000463575125, 0.0, 0.0, 0.0, 0.0, 0.0, 1.7564858367714064E9, 0.0, 2025-08-29 13:43:56.771
10.0, -12.560454001184553, 37.3129818579182, -162.49678312474862, -95.96583286300302, 0.0, 0.04800000227987766, 0.9760000463575125, 0.0, 0.0, 0.0, 0.0, 0.0, 1.7564858367714064E9, 0.0, 2025-08-29 13:43:56.771
11.0, 168.1702113575302, 120.3537204740569, -355.8982295333408, -289.6851707678288, 0.0, 0.04800000227987766, 0.9760000463575125, 0.0, 0.0, 0.0, 0.0, 0.0, 1.756485836787078E9, 0.0, 2025-08-29 13:43:56.787
11.0, 83.13984596496448, -45.44352436158806, -196.8851632173173, -120.13680627662688, 0.0, 0.04800000227987766, 0.9760000463575125, 0.0, 0.0, 0.0, 0.0, 0.0, 1.756485836787078E9, 0.0, 2025-08-29 13:43:56.787
12.0, 275.1126505904831, -20.92474025208503, -90.10727958241478, -7.846310107037425, 0.0, 0.04800000227987766, 0.9760000463575125, 0.0, 0.0, 0.0, 0.0, 0.0, 1.756485836787848E9, 0.0, 2025-08-29 13:43:56.787
12.0, 228.94545558746904, 150.23926101997495, -319.942831359338, -223.53756025154144, 0.0, 0.04800000227987766, 0.9760000463575125, 0.0, 0.0, 0.0, 0.0, 0.0, 1.756485836787848E9, 0.0, 2025-08-29 13:43:56.787
13.0, 267.0756055857055, 18.804216977208853, -305.89202722581103, -214.74131555575877, 0.0, 0.04800000227987766, 0.9760000463575125, 0.0, 0.0, 0.0, 0.0, 0.0, 1.7564858368014548E9, 0.0, 2025-08-29 13:43:56.801
13.0, 69.42563282744959, -80.44898794684559, -108.83669856050983, -23.093882226385176, 0.0, 0.04800000227987766, 0.9760000463575125, 0.0, 0.0, 0.0, 0.0, 0.0, 1.7564858368014548E9, 0.0, 2025-08-29 13:43:56.801
14.0, 150.0204768725671, 103.09408217854798, -268.75482066581026, -196.62524017039686, 0.0, 0.04800000227987766, 0.9760000463575125, 0.0, 0.0, 0.0, 0.0, 0.0, 1.756485836817082E9, 0.0, 2025-08-29 13:43:56.817
14.0, -9.557314336765558, 90.79355122428387, -378.95471276016906, -306.30902607087046, 0.0, 0.04800000227987766, 0.9760000463575125, 0.0, 0.0, 0.0, 0.0, 0.0, 1.756485836817082E9, 0.0, 2025-08-29 13:43:56.817
15.0, -18.405917631927878, -94.75410527735949, -158.3567138737999, -83.94579440541565, 0.0, 0.04800000227987766, 0.9760000463575125, 0.0, 0.0, 0.0, 0.0, 0.0, 1.7564858368177938E9, 0.0, 2025-08-29 13:43:56.817
15.0, -42.67599839437753, 14.372435529716313, -218.4606460616924, -137.55726027023047, 0.0, 0.04800000227987766, 0.9760000463575125, 0.0, 0.0, 0.0, 0.0, 0.0, 1.7564858368177938E9, 0.0, 2025-08-29 13:43:56.817
16.0, 131.6182991405949, 105.6035550488159, -423.57545913150534, -354.59113449882716, 0.0, 0.04800000227987766, 0.9760000463575125, 0.0, 0.0, 0.0, 0.0, 0.0, 1.7564858368313775E9, 0.0, 2025-08-29 13:43:56.831
16.0, 31.994844120927155, -74.39782981853932, -250.20491688558832, -185.16992660611868, 0.0, 0.04800000227987766, 0.9760000463575125, 0.0, 0.0, 0.0, 0.0, 0.0, 1.7564858368313775E9, 0.0, 2025-08-29 13:43:56.831
17.0, 230.94630206376314, -48.858053021132946, -149.03314328426495, -82.88366281799972, 0.0, 0.04800000227987766, 0.9760000463575125, 0.0, 0.0, 0.0, 0.0, 0.0, 1.756485836847072E9, 0.0, 2025-08-29 13:43:56.847
17.0, 194.76463994244114, 126.52829530090094, -384.47480509476736, -323.17597487103194, 0.0, 0.04800000227987766, 0.9760000463575125, 0.0, 0.0, 0.0, 0.0, 0.0, 1.756485836847072E9, 0.0, 2025-08-29 13:43:56.847
18.0, 221.37963797710836, -6.066117728129029, -351.6197839840315, -289.7001303676516, 0.0, 0.04800000227987766, 0.9760000463575125, 0.0, 0.0, 0.0, 0.0, 0.0, 1.7564858368478076E9, 0.0, 2025-08-29 13:43:56.847
18.0, 28.008110768161714, -123.427918237634, -151.4640782554634, -90.36346272937953, 0.0, 0.04800000227987766, 0.9760000463575125, 0.0, 0.0, 0.0, 0.0, 0.0, 1.7564858368478076E9, 0.0, 2025-08-29 13:43:56.847
19.0, 122.38074625004083, 71.02817995846272, -324.56160780461505, -248.20220045931637, 0.0, 0.04800000227987766, 0.9760000463575125, 0.0, 0.0, 0.0, 0.0, 0.0, 1.756485836861408E9, 0.0, 2025-08-29 13:43:56.861
19.0, -31.991104220971465, 67.60617149900645, -413.30943375313655, -340.80960316210985, 0.0, 0.04800000227987766, 0.9760000463575125, 0.0, 0.0, 0.0, 0.0, 0.0, 1.756485836861408E9, 0.0, 2025-08-29 13:43:56.861
20.0, -36.51638316735625, -108.75255081150681, -180.01447451720014, -120.4621775727719, 0.0, 0.04800000227987766, 0.9760000463575125, 0.0, 0.0, 0.0, 0.0, 0.0, 1.7564858368771036E9, 0.0, 2025-08-29 13:43:56.877
20.0, -48.313897577580065, 11.791904560290277, -242.41470527788624, -177.59288929589093, 0.0, 0.04800000227987766, 0.9760000463575125, 0.0, 0.0, 0.0, 0.0, 0.0, 1.7564858368771036E9, 0.0, 2025-08-29 13:43:56.877
21.0, 127.77929183607921, 95.20663317199796, -439.17458184668794, -393.42251573875546, 0.0, 0.04800000227987766, 0.9760000463575125, 0.0, 0.0, 0.0, 0.0, 0.0, 1.756485836877838E9, 0.0, 2025-08-29 13:43:56.877
21.0, 19.1763370228, -94.24173898342997, -277.35659056389704, -209.0978065226227, 0.0, 0.04800000227987766, 0.9760000463575125, 0.0, 0.0, 0.0, 0.0, 0.0, 1.756485836877838E9, 0.0, 2025-08-29 13:43:56.877
22.0, 223.03080380754545, -70.1792226685211, -179.92845681821927, -111.98382437322289, 0.0, 0.04800000227987766, 0.9760000463575125, 0.0, 0.0, 0.0, 0.0, 0.0, 1.7564858368914046E9, 0.0, 2025-08-29 13:43:56.891
22.0, 183.24761802889407, 97.42813374567777, -410.78500128304586, -337.0435239067301, 0.0, 0.04800000227987766, 0.9760000463575125, 0.0, 0.0, 0.0, 0.0, 0.0, 1.7564858368914046E9, 0.0, 2025-08-29 13:43:56.891
23.0, 203.05225824424997, -30.18099264241755, -352.98858736781403, -295.9869021931663, 0.0, 0.04800000227987766, 0.9760000463575125, 0.0, 0.0, 0.0, 0.0, 0.0, 1.7564858369070537E9, 0.0, 2025-08-29 13:43:56.907
23.0, 32.43428236572072, -127.86717948503792, -152.74312404030934, -106.77788363490254, 0.0, 0.04800000227987766, 0.9760000463575125, 0.0, 0.0, 0.0, 0.0, 0.0, 1.7564858369070537E9, 0.0, 2025-08-29 13:43:56.907
24.0, 126.2272333544679, 70.05580596998334, -340.79651351226494, -281.40503226593137, 0.0, 0.04800000227987766, 0.9760000463575125, 0.0, 0.0, 0.0, 0.0, 0.0, 1.7564858369077876E9, 0.0, 2025-08-29 13:43:56.907
24.0, -51.98647933406755, 41.71484410576522, -428.8935968684964, -374.7753745596856, 0.0, 0.04800000227987766, 0.9760000463575125, 0.0, 0.0, 0.0, 0.0, 0.0, 1.7564858369077876E9, 0.0, 2025-08-29 13:43:56.907
25.0, -67.33876865217462, -145.10063848085701, -213.4529200210236, -151.35749110672623, 0.0, 0.04800000227987766, 0.9760000463575125, 0.0, 0.0, 0.0, 0.0, 0.0, 1.7564858369214113E9, 0.0, 2025-08-29 13:43:56.921
25.0, -56.47809918085113, 0.6806617919355631, -277.405209263321, -207.75518243853003, 0.0, 0.04800000227987766, 0.9760000463575125, 0.0, 0.0, 0.0, 0.0, 0.0, 1.7564858369214113E9, 0.0, 2025-08-29 13:43:56.921
26.0, 117.12431686231866, 83.76627920754254, -451.1534814047627, -384.6561902426183, 0.0, 0.04800000227987766, 0.9760000463575125, 0.0, 0.0, 0.0, 0.0, 0.0, 1.7564858369370515E9, 0.0, 2025-08-29 13:43:56.937
26.0, 13.783401286695153, -115.0542822368443, -250.68736397987232, -181.29913015197963, 0.0, 0.04800000227987766, 0.9760000463575125, 0.0, 0.0, 0.0, 0.0, 0.0, 1.7564858369370515E9, 0.0, 2025-08-29 13:43:56.937
27.0, 230.9780912133865, -85.20988059043884, -166.64059227565303, -100.4200537102297, 0.0, 0.04800000227987766, 0.9760000463575125, 0.0, 0.0, 0.0, 0.0, 0.0, 1.7564858369377837E9, 0.0, 2025-08-29 13:43:56.937
27.0, 207.71404353901744, 102.30122338794172, -398.3984526298009, -327.80223111622036, 0.0, 0.04800000227987766, 0.9760000463575125, 0.0, 0.0, 0.0, 0.0, 0.0, 1.7564858369377837E9, 0.0, 2025-08-29 13:43:56.937
28.0, 233.794235880021, -30.371727540157735, -338.75826803641394, -276.33372792601585, 0.0, 0.04800000227987766, 0.9760000463575125, 0.0, 0.0, 0.0, 0.0, 0.0, 1.7564858369514012E9, 0.0, 2025-08-29 13:43:56.951
28.0, 44.60765672149137, -137.8452325668186, -131.05544419726357, -78.69123496767133, 0.0, 0.04800000227987766, 0.9760000463575125, 0.0, 0.0, 0.0, 0.0, 0.0, 1.7564858369514012E9, 0.0, 2025-08-29 13:43:56.951
29.0, 149.89706017402932, 76.89608298894018, -303.44239275483415, -244.84751019906253, 0.0, 0.04800000227987766, 0.9760000463575125, 0.0, 0.0, 0.0, 0.0, 0.0, 1.7564858369670744E9, 0.0, 2025-08-29 13:43:56.967
29.0, -39.887902977410704, 41.83078100439161, -417.4121040045284, -358.62648655101657, 0.0, 0.04800000227987766, 0.9760000463575125, 0.0, 0.0, 0.0, 0.0, 0.0, 1.7564858369670744E9, 0.0, 2025-08-29 13:43:56.967
30.0, -40.994913364294916, -136.97383587714285, -188.30583271896467, -126.56943420041353, 0.0, 0.04800000227987766, 0.9760000463575125, 0.0, 0.0, 0.0, 0.0, 0.0, 1.7564858369677932E9, 0.0, 2025-08-29 13:43:56.967
30.0, -21.816706391517073, 9.151535191573203, -236.44208504864946, -184.28357031662017, 0.0, 0.04800000227987766, 0.9760000463575125, 0.0, 0.0, 0.0, 0.0, 0.0, 1.7564858369677932E9, 0.0, 2025-08-29 13:43:56.967
31.0, 138.6811002069153, 97.15138114895672, -446.43746756063774, -387.49851420894265, 0.0, 0.04800000227987766, 0.9760000463575125, 0.0, 0.0, 0.0, 0.0, 0.0, 1.7564858369813912E9, 0.0, 2025-08-29 13:43:56.981
31.0, 8.188510952983052, -108.24766431748867, -267.38227738207206, -213.42113087140024, 0.0, 0.04800000227987766, 0.9760000463575125, 0.0, 0.0, 0.0, 0.0, 0.0, 1.7564858369813912E9, 0.0, 2025-08-29 13:43:56.981
32.0, 236.35980724962428, -78.13024997431785, -151.78570965165272, -104.84435535781085, 0.0, 0.04800000227987766, 0.9760000463575125, 0.0, 0.0, 0.0, 0.0, 0.0, 1.7564858369970627E9, 0.0, 2025-08-29 13:43:56.997
32.0, 206.62573265191168, 103.71864547114819, -383.2294184095226, -328.05654431320727, 0.0, 0.04800000227987766, 0.9760000463575125, 0.0, 0.0, 0.0, 0.0, 0.0, 1.7564858369970627E9, 0.0, 2025-08-29 13:43:56.997
33.0, 212.25241213524714, -21.115475149825215, -341.2191222072579, -276.3636471256614, 0.0, 0.04800000227987766, 0.9760000463575125, 0.0, 0.0, 0.0, 0.0, 0.0, 1.7564858369977915E9, 0.0, 2025-08-29 13:43:56.997
33.0, 34.09105804609135, -111.32934188097715, -141.81887626973912, -90.52053852751851, 0.0, 0.04800000227987766, 0.9760000463575125, 0.0, 0.0, 0.0, 0.0, 0.0, 1.7564858369977915E9, 0.0, 2025-08-29 13:43:56.997
34.0, 155.0880413125269, 93.99864548631012, -310.8698340668343, -263.1954593816772, 0.0, 0.04800000227987766, 0.9760000463575125, 0.0, 0.0, 0.0, 0.0, 0.0, 1.7564858370113957E9, 0.0, 2025-08-29 13:43:57.011
34.0, -44.51041932264343, 58.79870710335672, -403.5482948687859, -368.15949153807014, 0.0, 0.04800000227987766, 0.9760000463575125, 0.0, 0.0, 0.0, 0.0, 0.0, 1.7564858370113957E9, 0.0, 2025-08-29 13:43:57.011
35.0, -60.17686023702845, -133.90337801352143, -177.03751415247098, -128.94053077232093, 0.0, 0.04800000227987766, 0.9760000463575125, 0.0, 0.0, 0.0, 0.0, 0.0, 1.7564858370270514E9, 0.0, 2025-08-29 13:43:57.027
35.0, -41.76907265512273, 17.25589839555323, -219.88554794481024, -178.0454171905294, 0.0, 0.04800000227987766, 0.9760000463575125, 0.0, 0.0, 0.0, 0.0, 0.0, 1.7564858370270514E9, 0.0, 2025-08-29 13:43:57.027
36.0, 138.49784510908648, 110.18119259458035, -420.5835391669534, -347.74711757991463, 0.0, 0.04800000227987766, 0.9760000463575125, 0.0, 0.0, 0.0, 0.0, 0.0, 1.7564858370277853E9, 0.0, 2025-08-29 13:43:57.027
36.0, 12.070527106989175, -87.88764895871282, -253.2155363499187, -173.65103474259377, 0.0, 0.04800000227987766, 0.9760000463575125, 0.0, 0.0, 0.0, 0.0, 0.0, 1.7564858370277853E9, 0.0, 2025-08-29 13:43:57.027
37.0, 233.25195038644597, -65.8484185198322, -152.54490934265777, -103.90938036888838, 0.0, 0.04800000227987766, 0.9760000463575125, 0.0, 0.0, 0.0, 0.0, 0.0, 1.7564858370413806E9, 0.0, 2025-08-29 13:43:57.041
37.0, 203.29722169134766, 109.45565200317651, -383.7530044033192, -347.5077639827505, 0.0, 0.04800000227987766, 0.9760000463575125, 0.0, 0.0, 0.0, 0.0, 0.0, 1.7564858370413806E9, 0.0, 2025-08-29 13:43:57.041
38.0, 201.8760597081855, -29.78830314707011, -348.3398917228915, -296.3982911882922, 0.0, 0.04800000227987766, 0.9760000463575125, 0.0, 0.0, 0.0, 0.0, 0.0, 1.756485837057082E9, 0.0, 2025-08-29 13:43:57.057
38.0, 29.859361246228218, -126.39739880245179, -130.44210060453042, -94.2679182831198, 0.0, 0.04800000227987766, 0.9760000463575125, 0.0, 0.0, 0.0, 0.0, 0.0, 1.756485837057082E9, 0.0, 2025-08-29 13:43:57.057
39.0, 153.41817598231137, 77.87593677733094, -312.2012384510599, -260.2633778164163, 0.0, 0.04800000227987766, 0.9760000463575125, 0.0, 0.0, 0.0, 0.0, 0.0, 1.7564858370578284E9, 0.0, 2025-08-29 13:43:57.057
39.0, -53.4693496664986, 44.478630173020065, -414.6595376371406, -351.07188864052296, 0.0, 0.04800000227987766, 0.9760000463575125, 0.0, 0.0, 0.0, 0.0, 0.0, 1.7564858370578284E9, 0.0, 2025-08-29 13:43:57.057
40.0, -65.75492102093995, -146.31610596645623, -175.05536717595533, -120.66039227042347, 0.0, 0.04800000227987766, 0.9760000463575125, 0.0, 0.0, 0.0, 0.0, 0.0, 1.7564858370713875E9, 0.0, 2025-08-29 13:43:57.071
40.0, -28.879507457837462, 0.8190380902960896, -213.20234672399238, -159.45811441075057, 0.0, 0.04800000227987766, 0.9760000463575125, 0.0, 0.0, 0.0, 0.0, 0.0, 1.7564858370713875E9, 0.0, 2025-08-29 13:43:57.071
41.0, 135.86308559030294, 88.77774514816701, -421.0734660611488, -370.37351231183857, 0.0, 0.04800000227987766, 0.9760000463575125, 0.0, 0.0, 0.0, 0.0, 0.0, 1.7564858370870776E9, 0.0, 2025-08-29 13:43:57.087
41.0, -1.933528277091682, -105.62973434850574, -247.60194651642814, -205.99368955940008, 0.0, 0.04800000227987766, 0.9760000463575125, 0.0, 0.0, 0.0, 0.0, 0.0, 1.7564858370870776E9, 0.0, 2025-08-29 13:43:57.087
42.0, 229.09879148565233, -71.3647709544748, -148.718991687987, -97.46179284527898, 0.0, 0.04800000227987766, 0.9760000463575125, 0.0, 0.0, 0.0, 0.0, 0.0, 1.7564858370878148E9, 0.0, 2025-08-29 13:43:57.087
42.0, 223.43471300275996, 121.55422835983336, -372.17801404045895, -317.71946083568037, 0.0, 0.04800000227987766, 0.9760000463575125, 0.0, 0.0, 0.0, 0.0, 0.0, 1.7564858370878148E9, 0.0, 2025-08-29 13:43:57.087
43.0, 202.68948794854805, -15.071796821430326, -315.9934970061295, -276.3187683261931, 0.0, 0.04800000227987766, 0.9760000463575125, 0.0, 0.0, 0.0, 0.0, 0.0, 1.7564858371014042E9, 0.0, 2025-08-29 13:43:57.101
43.0, 30.75506728561595, -107.89985362160951, -148.48337799077854, -90.61777592636645, 0.0, 0.04800000227987766, 0.9760000463575125, 0.0, 0.0, 0.0, 0.0, 0.0, 1.7564858371014042E9, 0.0, 2025-08-29 13:43:57.101
44.0, 164.49014980113134, 103.419453474693, -332.5911730094813, -277.272442814894, 0.0, 0.04800000227987766, 0.9760000463575125, 0.0, 0.0, 0.0, 0.0, 0.0, 1.756485837117136E9, 0.0, 2025-08-29 13:43:57.117
44.0, -48.16804147930816, 44.478630173020065, -379.425940154586, -347.8593145785853, 0.0, 0.04800000227987766, 0.9760000463575125, 0.0, 0.0, 0.0, 0.0, 0.0, 1.756485837117136E9, 0.0, 2025-08-29 13:43:57.117
45.0, -73.2365908822976, -149.01257383450866, -155.690165205393, -109.92313949763775, 0.0, 0.04800000227987766, 0.9760000463575125, 0.0, 0.0, 0.0, 0.0, 0.0, 1.756485837117833E9, 0.0, 2025-08-29 13:43:57.117
45.0, -7.283455163706094, 23.542670221067965, -187.82338562468067, -154.23347417265177, 0.0, 0.04800000227987766, 0.9760000463575125, 0.0, 0.0, 0.0, 0.0, 0.0, 1.756485837117833E9, 0.0, 2025-08-29 13:43:57.117
46.0, 154.7177912169136, 112.03992287255824, -367.61159619456157, -356.1768520800397, 0.0, 0.04800000227987766, 0.9760000463575125, 0.0, 0.0, 0.0, 0.0, 0.0, 1.7564858371314027E9, 0.0, 2025-08-29 13:43:57.131
46.0, 16.577106553595513, -91.50039231590927, -185.45228905277327, -186.25823749322444, 0.0, 0.04800000227987766, 0.9760000463575125, 0.0, 0.0, 0.0, 0.0, 0.0, 1.7564858371314027E9, 0.0, 2025-08-29 13:43:57.131
47.0, 260.6317579620518, -47.84080023318529, -81.48307028459385, -99.93012681603432, 0.0, 0.04800000227987766, 0.9760000463575125, 0.0, 0.0, 0.0, 0.0, 0.0, 1.7564858371471264E9, 0.0, 2025-08-29 13:43:57.147
47.0, 243.08601731993258, 135.84812599048018, -321.11715994542465, -339.6464942758903, 0.0, 0.04800000227987766, 0.9760000463575125, 0.0, 0.0, 0.0, 0.0, 0.0, 1.7564858371471264E9, 0.0, 2025-08-29 13:43:57.147
48.0, 221.70874917320907, -5.7332666320726275, -260.64671756187454, -286.0948668103665, 0.0, 0.04800000227987766, 0.9760000463575125, 0.0, 0.0, 0.0, 0.0, 0.0, 1.7564858371478395E9, 0.0, 2025-08-29 13:43:57.147
48.0, 58.151704411022365, -102.67521338351071, -63.950419292319566, -79.77580595482141, 0.0, 0.04800000227987766, 0.9760000463575125, 0.0, 0.0, 0.0, 0.0, 0.0, 1.7564858371478395E9, 0.0, 2025-08-29 13:43:57.147
49.0, 194.54959569498897, 115.95185822620988, -236.9806306422688, -256.92364715598524, 0.0, 0.04800000227987766, 0.9760000463575125, 0.0, 0.0, 0.0, 0.0, 0.0, 1.756485837161402E9, 0.0, 2025-08-29 13:43:57.161
49.0, -35.4243323802948, 80.53126574587077, -341.6679102019407, -379.34179240558296, 0.0, 0.04800000227987766, 0.9760000463575125, 0.0, 0.0, 0.0, 0.0, 0.0, 1.756485837161402E9, 0.0, 2025-08-29 13:43:57.161
50.0, -64.67408993374556, -115.9069794267416, -112.41204291814938, -169.81015748810023, 0.0, 0.04800000227987766, 0.9920000471174717, 0.0, 0.0, 0.0, 0.0, 0.0, 1.7564858371771028E9, 0.0, 2025-08-29 13:43:57.177
50.0, 7.457360511645675, 36.25833007041365, -160.77268924517557, -213.2490954734385, 0.0, 0.04800000227987766, 0.9920000471174717, 0.0, 0.0, 0.0, 0.0, 0.0, 1.7564858371771028E9, 0.0, 2025-08-29 13:43:57.177
51.0, 158.05565192736685, 137.70685626845807, -370.43148076115176, -413.8535891966894, 0.0, 0.04800000227987766, 0.9920000471174717, 0.0, 0.0, 0.0, 0.0, 0.0, 1.75648583717784E9, 0.0, 2025-08-29 13:43:57.177
51.0, -2.4832935705780983, -75.90874940063804, -201.3356441645883, -238.2241473775357, 0.0, 0.04800000227987766, 0.9920000471174717, 0.0, 0.0, 0.0, 0.0, 0.0, 1.75648583717784E9, 0.0, 2025-08-29 13:43:57.177
52.0, -241.13939939299598, -42.406725597567856, -117.72644075518474, -140.33226603735238, 0.0, 0.04800000227987766, 0.9920000471174717, 0.0, 0.0, 0.0, 0.0, 0.0, 1.75648583719143E9, 0.0, 2025-08-29 13:43:57.191
52.0, -271.63641358166933, 133.33865312021226, -355.8645704337396, -379.8055400000885, 0.0, 0.04800000227987766, 0.9920000471174717, 0.0, 0.0, 0.0, 0.0, 0.0, 1.75648583719143E9, 0.0, 2025-08-29 13:43:57.191
53.0, -320.38974940404296, -20.401154258288443, -298.99939160747454, -329.76193869300187, 0.0, 0.04800000227987766, 0.9920000471174717, 0.0, 0.0, 0.0, 0.0, 0.0, 1.7564858372071273E9, 0.0, 2025-08-29 13:43:57.207
53.0, -478.50523973070085, -123.19230454042554, -119.0765446391888, -128.11027298215777, 0.0, 0.04800000227987766, 0.9920000471174717, 0.0, 0.0, 0.0, 0.0, 0.0, 1.7564858372071273E9, 0.0, 2025-08-29 13:43:57.207
54.0, -348.69705216865987, 85.3744361884892, -299.717452398967, -322.21108068246394, 0.0, 0.04800000227987766, 0.9920000471174717, 0.0, 0.0, 0.0, 0.0, 0.0, 1.7564858372078612E9, 0.0, 2025-08-29 13:43:57.207
54.0, -572.5973827159032, 50.881338897161186, -397.93096513533965, -412.6493414109573, 0.0, 0.04800000227987766, 0.9920000471174717, 0.0, 0.0, 0.0, 0.0, 0.0, 1.7564858372078612E9, 0.0, 2025-08-29 13:43:57.207
55.0, -584.8792141703889, -144.21054229140282, -189.2146284081973, -189.67276615276933, 0.0, 0.04800000227987766, 0.9920000471174717, 0.0, 0.0, 0.0, 0.0, 0.0, 1.7564858372214315E9, 0.0, 2025-08-29 13:43:57.221
55.0, -513.4321654168889, 8.111843003891408, -233.9774909778498, -235.43792191054672, 0.0, 0.04800000227987766, 0.9920000471174717, 0.0, 0.0, 0.0, 0.0, 0.0, 1.7564858372214315E9, 0.0, 2025-08-29 13:43:57.221
56.0, -360.5076562287286, 96.231365759857, -432.5661786249839, -447.7744817947969, 0.0, 0.04800000227987766, 0.9920000471174717, 0.0, 0.0, 0.0, 0.0, 0.0, 1.7564858372371304E9, 0.0, 2025-08-29 13:43:57.237
56.0, -529.0238083321601, -123.40547883789986, -273.31001881184056, -277.22008421551436, 0.0, 0.04800000227987766, 0.9920000471174717, 0.0, 0.0, 0.0, 0.0, 0.0, 1.7564858372371304E9, 0.0, 2025-08-29 13:43:57.237
57.0, -744.5785521282814, -72.1800691448152, -167.55312786484137, -195.92213897872716, 0.0, 0.04800000227987766, 0.9920000471174717, 0.0, 0.0, 0.0, 0.0, 0.0, 1.7564858372378428E9, 0.0, 2025-08-29 13:43:57.237
57.0, -785.9549352880567, 97.1214619493112, 73.80692562554032, -431.48721748776734, 0.0, 0.04800000227987766, 0.9920000471174717, 0.0, 0.0, 0.0, 0.0, 0.0, 1.7564858372378428E9, 0.0, 2025-08-29 13:43:57.237
58.0, -834.1772053167224, -68.2195150917396, 116.14259312395006, -391.6984218591824, 0.0, 0.04800000227987766, 0.9920000471174717, 0.0, 0.0, 0.0, 0.0, 0.0, 1.7564858372514112E9, 0.0, 2025-08-29 13:43:57.251
58.0, -983.1262008519843, -161.02513249218464, 322.43173477984965, -178.43810668587685, 0.0, 0.04800000227987766, 0.9920000471174717, 0.0, 0.0, 0.0, 0.0, 0.0, 1.7564858372514112E9, 0.0, 2025-08-29 13:43:57.251
59.0, -844.5105488942936, 56.898837925866246, 149.20704863220453, -347.7209382802248, 0.0, 0.04800000227987766, 0.9920000471174717, 0.0, 0.0, 0.0, 0.0, 0.0, 1.7564858372671027E9, 0.0, 2025-08-29 13:43:57.267
59.0, -1083.9501637574285, 18.84909577667713, 43.82040778081864, -450.42233096342534, 0.0, 0.04800000227987766, 0.9920000471174717, 0.0, 0.0, 0.0, 0.0, 0.0, 1.7564858372671027E9, 0.0, 2025-08-29 13:43:57.267
60.0, -1093.038120649755, -163.0446784682572, -192.30752567155287, -692.4630462457426, 0.0, 0.04800000227987766, 0.9760000463575125, 0.0, 0.0, 0.0, 0.0, 0.0, 1.7564858372678366E9, 0.0, 2025-08-29 13:43:57.267
60.0, -1016.115858361125, -3.1153366630896926, -252.837806454394, -749.7358741671778, 0.0, 0.04800000227987766, 0.9760000463575125, 0.0, 0.0, 0.0, 0.0, 0.0, 1.7564858372678366E9, 0.0, 2025-08-29 13:43:57.267
61.0, -887.0893098898232, 80.79679864272475, -465.74283113190904, -950.7367972857319, 0.0, 0.04800000227987766, 0.9760000463575125, 0.0, 0.0, 0.0, 0.0, 0.0, 1.7564858372814422E9, 0.0, 2025-08-29 13:43:57.281
61.0, -1047.8676089849323, -137.2094495743513, -287.24862594669685, -777.8075632345863, 0.0, 0.04800000227987766, 0.9760000463575125, 0.0, 0.0, 0.0, 0.0, 0.0, 1.7564858372814422E9, 0.0, 2025-08-29 13:43:57.281
62.0, -1249.5510638453998, -83.72140040807426, -180.72131560882553, -680.7496795845218, 0.0, 0.04800000227987766, 0.9760000463575125, 0.0, 0.0, 0.0, 0.0, 0.0, 1.7564858372971747E9, 0.0, 2025-08-29 13:43:57.297
62.0, -1285.4709329698235, 101.21665240079165, -417.4756823037751, -909.8409912702627, 0.0, 0.04800000227987766, 0.9760000463575125, 0.0, 0.0, 0.0, 0.0, 0.0, 1.7564858372971747E9, 0.0, 2025-08-29 13:43:57.297
63.0, -1352.1757885795087, -59.18017689883709, -362.4430544557981, -861.8206758392043, 0.0, 0.04800000227987766, 0.9760000463575125, 0.0, 0.0, 0.0, 0.0, 0.0, 1.7564858372978709E9, 0.0, 2025-08-29 13:43:57.297
63.0, -1463.912779555656, -137.53108097054064, -142.37238146318123, -632.3703337577172, 0.0, 0.04800000227987766, 0.9760000463575125, 0.0, 0.0, 0.0, 0.0, 0.0, 1.7564858372978709E9, 0.0, 2025-08-29 13:43:57.297
64.0, -1322.9522103257477, 77.41592908278108, -320.19714455632493, -826.3739040591754, 0.0, 0.04800000227987766, 0.9760000463575125, 0.0, 0.0, 0.0, 0.0, 0.0, 1.7564858373114111E9, 0.0, 2025-08-29 13:43:57.311
64.0, -1086.4802060774527, 32.783963011577725, -432.28568612830713, -914.9048158102669, 0.0, 0.04800000227987766, 0.9760000463575125, 0.0, 0.0, 0.0, 0.0, 0.0, 1.7564858373114111E9, 0.0, 2025-08-29 13:43:57.311
65.0, -1096.2076858622022, -163.09329716768116, -201.63857606099918, -676.7592063318007, 0.0, 0.04800000227987766, 0.9760000463575125, 0.0, 0.0, 0.0, 0.0, 0.0, 1.7564858373271012E9, 0.0, 2025-08-29 13:43:57.327
65.0, -992.6984747885726, 18.54616388026625, -237.78844903269783, -725.1348122586496, 0.0, 0.04800000227987766, 0.9760000463575125, 0.0, 0.0, 0.0, 0.0, 0.0, 1.7564858373271012E9, 0.0, 2025-08-29 13:43:57.327
66.0, -874.1099870936014, 94.4511733809486, -451.5723501998, -946.9445387306623, 0.0, 0.04800000227987766, 0.9760000463575125, 0.0, 0.0, 0.0, 0.0, 0.0, 1.756485837327832E9, 0.0, 2025-08-29 13:43:57.327
66.0, -1032.8051619133912, -119.56460158340633, -278.3401842522435, -763.2481327070855, 0.0, 0.04800000227987766, 0.9760000463575125, 0.0, 0.0, 0.0, 0.0, 0.0, 1.756485837327832E9, 0.0, 2025-08-29 13:43:57.327
67.0, -1233.834134281613, -84.64889559708536, -177.68825674476102, -664.200622280594, 0.0, 0.04800000227987766, 0.9760000463575125, 0.0, 0.0, 0.0, 0.0, 0.0, 1.7564858373413815E9, 0.0, 2025-08-29 13:43:57.341
67.0, -1272.9029991687275, 102.07308949064463, -404.2850551600568, -420.9406996127218, 0.0, 0.04800000227987766, 0.9760000463575125, 0.0, 0.0, 0.0, 0.0, 0.0, 1.7564858373413815E9, 0.0, 2025-08-29 13:43:57.341
68.0, -1325.5196516453288, -49.37041931506246, -357.6335431127809, -358.45445115305483, 0.0, 0.04800000227987766, 0.9760000463575125, 0.0, 0.0, 0.0, 0.0, 0.0, 1.756485837357103E9, 0.0, 2025-08-29 13:43:57.357
68.0, -1456.7826602901332, -136.6185453813523, -163.7272102101706, -168.58347030263394, 0.0, 0.04800000227987766, 0.9760000463575125, 0.0, 0.0, 0.0, 0.0, 0.0, 1.756485837357103E9, 0.0, 2025-08-29 13:43:57.357
69.0, -1306.9547882652842, 85.57265088614076, -332.15360471466556, -332.7501187575981, 0.0, 0.04800000227987766, 0.9760000463575125, 0.0, 0.0, 0.0, 0.0, 0.0, 1.7564858373578432E9, 0.0, 2025-08-29 13:43:57.357
69.0, -1070.894173012115, 49.8379068095237, -419.5475868792273, -428.62993392162025, 0.0, 0.04800000227987766, 0.9760000463575125, 0.0, 0.0, 0.0, 0.0, 0.0, 1.7564858373578432E9, 0.0, 2025-08-29 13:43:57.357
70.0, -1086.4671164276078, -155.0712117627263, -193.9979604515247, -189.18283925857395, 0.0, 0.04800000227987766, 0.9760000463575125, 0.0, 0.0, 0.0, 0.0, 0.0, 1.756485837371424E9, 0.0, 2025-08-29 13:43:57.371
70.0, -995.6324263038114, 7.696714108809829, -262.4306498407386, -255.0462173782289, 0.0, 0.04800000227987766, 0.9760000463575125, 0.0, 0.0, 0.0, 0.0, 0.0, 1.756485837371424E9, 0.0, 2025-08-29 13:43:57.371
71.0, -873.0796446558088, 90.1914273314178, -458.13961452199146, -456.6305648898706, 0.0, 0.04800000227987766, 0.9760000463575125, 0.0, 0.0, 0.0, 0.0, 0.0, 1.7564858373871317E9, 0.0, 2025-08-29 13:43:57.387
71.0, -1027.1897021299228, -125.2455096160993, -275.54273908538744, -269.2840165095404, 0.0, 0.04800000227987766, 0.9760000463575125, 0.0, 0.0, 0.0, 0.0, 0.0, 1.7564858373871317E9, 0.0, 2025-08-29 13:43:57.387
72.0, -1229.1125105875544, -71.90705644804984, -194.4467484462075, -185.07268920727074, 0.0, 0.04800000227987766, 0.9760000463575125, 0.0, 0.0, 0.0, 0.0, 0.0, 1.7564858373878329E9, 0.0, 2025-08-29 13:43:57.387
72.0, -1265.9710946008563, 109.16019990667701, -417.5093414033763, -422.06640949938446, 0.0, 0.04800000227987766, 0.9760000463575125, 0.0, 0.0, 0.0, 0.0, 0.0, 1.7564858373878329E9, 0.0, 2025-08-29 13:43:57.387
73.0, -1325.5327412951738, -45.282708663493395, -354.76877974672243, -355.33163469005376, 0.0, 0.04800000227987766, 0.9760000463575125, 0.0, 0.0, 0.0, 0.0, 0.0, 1.7564858374014287E9, 0.0, 2025-08-29 13:43:57.401
73.0, -1442.8459231052548, -120.25648307520896, -145.61861462472007, -160.47162729874253, 0.0, 0.04800000227987766, 0.9760000463575125, 0.0, 0.0, 0.0, 0.0, 0.0, 1.7564858374014287E9, 0.0, 2025-08-29 13:43:57.401
74.0, -1306.1675393246114, 95.90599446371198, -343.7098955777474, -348.3866404723376, 0.0, 0.04800000227987766, 0.9760000463575125, 0.0, 0.0, 0.0, 0.0, 0.0, 1.75648583741713E9, 0.0, 2025-08-29 13:43:57.417
74.0, -1080.3916489495896, 30.24457094166428, -429.3797838627361, -401.75875273998827, 0.0, 0.04800000227987766, 0.9760000463575125, 0.0, 0.0, 0.0, 0.0, 0.0, 1.75648583741713E9, 0.0, 2025-08-29 13:43:57.417
75.0, -1073.5943807801232, -152.78613288979977, -669.4009531689808, -162.5210924744606, 0.0, 0.04800000227987766, 0.9760000463575125, 0.0, 0.0, 0.0, 0.0, 0.0, 1.756485837417869E9, 0.0, 2025-08-29 13:43:57.417
75.0, -973.4772589663044, 12.296791054308414, -708.5203067054972, -200.0547284297645, 0.0, 0.04800000227987766, 0.9760000463575125, 0.0, 0.0, 0.0, 0.0, 0.0, 1.756485837417869E9, 0.0, 2025-08-29 13:43:57.417
76.0, -853.0599601930007, 89.46588674001396, -910.9536115070805, -387.7864865055308, 0.0, 0.04800000227987766, 0.9760000463575125, 0.0, 0.0, 0.0, 0.0, 0.0, 1.7564858374314525E9, 0.0, 2025-08-29 13:43:57.431
76.0, -1017.5220607444644, -121.3186146626249, -734.7893639942631, -194.21674459893256, 0.0, 0.04800000227987766, 0.9760000463575125, 0.0, 0.0, 0.0, 0.0, 0.0, 1.7564858374314525E9, 0.0, 2025-08-29 13:43:57.431
77.0, -1209.8669854155742, -68.98993448261172, -646.9204145353287, -99.99744501523674, 0.0, 0.04800000227987766, 0.9760000463575125, 0.0, 0.0, 0.0, 0.0, 0.0, 1.756485837447132E9, 0.0, 2025-08-29 13:43:57.447
77.0, -1253.745361645706, 110.80201598722488, -412.0004687686451, -341.8231160501018, 0.0, 0.04800000227987766, 0.9760000463575125, 0.0, 0.0, 0.0, 0.0, 0.0, 1.756485837447132E9, 0.0, 2025-08-29 13:43:57.447
78.0, -1320.9139648498967, -49.13854551780969, -369.68724066996947, -278.177498604171, 0.0, 0.04800000227987766, 0.9760000463575125, 0.0, 0.0, 0.0, 0.0, 0.0, 1.756485837447915E9, 0.0, 2025-08-29 13:43:57.447
78.0, -1447.692833447829, -136.89529797807336, -164.75194279802963, -77.84601757768542, 0.0, 0.04800000227987766, 0.9760000463575125, 0.0, 0.0, 0.0, 0.0, 0.0, 1.756485837447915E9, 0.0, 2025-08-29 13:43:57.447
79.0, -1297.1469006314874, 82.49845312256366, -355.53545923763886, -248.89034205116332, 0.0, 0.04800000227987766, 0.9760000463575125, 0.0, 0.0, 0.0, 0.0, 0.0, 1.7564858374614596E9, 0.0, 2025-08-29 13:43:57.461
79.0, -1073.75332652824, 24.567402808927, -466.1766595267691, -354.86040729563683, 0.0, 0.04800000227987766, 0.9760000463575125, 0.0, 0.0, 0.0, 0.0, 0.0, 1.7564858374614596E9, 0.0, 2025-08-29 13:43:57.461
80.0, -1081.9287478313781, -167.46150031592697, -235.66792575782165, -121.62154655903578, 0.0, 0.04800000227987766, 0.9760000463575125, 0.0, 0.0, 0.0, 0.0, 0.0, 1.7564858374935067E9, 0.0, 2025-08-29 13:43:57.493
80.0, -969.2717414661311, 7.188087714836001, -280.9693339210935, -192.07378192432225, 0.0, 0.04800000227987766, 0.9760000463575125, 0.0, 0.0, 0.0, 0.0, 0.0, 1.7564858374935067E9, 0.0, 2025-08-29 13:43:57.493
81.0, -872.2101179161109, 80.96135424077511, -488.12239246675745, -387.79396630544215, 0.0, 0.04800000227987766, 0.9760000463575125, 0.0, 0.0, 0.0, 0.0, 0.0, 1.756485837494236E9, 0.0, 2025-08-29 13:43:57.494
81.0, -1043.5124954865314, -144.90242378320545, -301.8005766742863, -206.3938588546589, 0.0, 0.04800000227987766, 0.9760000463575125, 0.0, 0.0, 0.0, 0.0, 0.0, 1.756485837494236E9, 0.0, 2025-08-29 13:43:57.494
82.0, -1227.0387360621244, -87.98862625751644, -210.83125015208498, -115.11412063613534, 0.0, 0.04800000227987766, 0.9760000463575125, 0.0, 0.0, 0.0, 0.0, 0.0, 1.7564858374949884E9, 0.0, 2025-08-29 13:43:57.494
82.0, -1258.003237745259, 102.11422839015722, -442.46943370765075, -356.0309959817678, 0.0, 0.04800000227987766, 0.9760000463575125, 0.0, 0.0, 0.0, 0.0, 0.0, 1.7564858374949884E9, 0.0, 2025-08-29 13:43:57.494
83.0, -1333.575396149885, -57.57201991789043, -390.099614628125, -301.9595224224031, 0.0, 0.04800000227987766, 0.9760000463575125, 0.0, 0.0, 0.0, 0.0, 0.0, 1.7564858374958196E9, 0.0, 2025-08-29 13:43:57.495
83.0, -1453.0165810347535, -138.68297015689313, -180.31366651365533, -103.10904177837074, 0.0, 0.04800000227987766, 0.9760000463575125, 0.0, 0.0, 0.0, 0.0, 0.0, 1.7564858374958196E9, 0.0, 2025-08-29 13:43:57.495
84.0, -1310.5525720226578, 77.6291033802554, -387.3582679606043, -297.4043242763728, 0.0, 0.04800000227987766, 0.9760000463575125, 0.0, 0.0, 0.0, 0.0, 0.0, 1.7564858375064049E9, 0.0, 2025-08-29 13:43:57.506
84.0, -1084.836520046927, 26.54954978544265, -463.3605148601346, -381.94102287478745, 0.0, 0.04800000227987766, 0.9760000463575125, 0.0, 0.0, 0.0, 0.0, 0.0, 1.7564858375064049E9, 0.0, 2025-08-29 13:43:57.506
85.0, -1092.5407139556482, -169.1182759962976, -705.0048007471487, -137.45628297142684, 0.0, 0.04800000227987766, 0.9760000463575125, 0.0, 0.0, 0.0, 0.0, 0.0, 1.756485837521432E9, 0.0, 2025-08-29 13:43:57.521
85.0, -972.4600061783567, 9.843416683375835, -773.0261011412367, -204.26959567982703, 0.0, 0.04800000227987766, 0.9760000463575125, 0.0, 0.0, 0.0, 0.0, 0.0, 1.756485837521432E9, 0.0, 2025-08-29 13:43:57.521
86.0, -874.4260086398572, 87.35284326504916, -971.7980438861996, -401.3361440449953, 0.0, 0.04800000227987766, 0.9760000463575125, 0.0, 0.0, 0.0, 0.0, 0.0, 1.7564858375371037E9, 0.0, 2025-08-29 13:43:57.537
86.0, -1049.9432534603402, -149.20704863220453, -809.9202142041177, -213.0321812760085, 0.0, 0.04800000227987766, 0.9760000463575125, 0.0, 0.0, 0.0, 0.0, 0.0, 1.7564858375371037E9, 0.0, 2025-08-29 13:43:57.537
87.0, -1227.006946912501, -89.17791444342583, -715.4017226239666, -131.55846074130386, 0.0, 0.04800000227987766, 0.9760000463575125, 0.0, 0.0, 0.0, 0.0, 0.0, 1.7564858375378425E9, 0.0, 2025-08-29 13:43:57.537
87.0, -1270.9713408416137, 104.05897636711597, -950.6900485362858, 109.56971895182505, 0.0, 0.04800000227987766, 0.9760000463575125, 0.0, 0.0, 0.0, 0.0, 0.0, 1.7564858375378425E9, 0.0, 2025-08-29 13:43:57.537
88.0, -1342.366030995734, -59.1764369988814, -877.178575007245, 168.16647145757452, 0.0, 0.04800000227987766, 0.9760000463575125, 0.0, 0.0, 0.0, 0.0, 0.0, 1.7564858375514069E9, 0.0, 2025-08-29 13:43:57.551
88.0, -1459.8886472033337, -141.57017292268574, -676.1028538895771, 382.2757439208217, 0.0, 0.04800000227987766, 0.9760000463575125, 0.0, 0.0, 0.0, 0.0, 0.0, 1.7564858375514069E9, 0.0, 2025-08-29 13:43:57.551
89.0, -1296.7878702357411, 84.3384839007631, -859.5561664160341, 206.42564800428227, 0.0, 0.04800000227987766, 0.9760000463575125, 0.0, 0.0, 0.0, 0.0, 0.0, 1.7564858375670989E9, 0.0, 2025-08-29 13:43:57.567
89.0, -1086.562483876478, 32.039722920395434, -964.3668626742437, 118.19766814960167, 0.0, 0.04800000227987766, 0.9760000463575125, 0.0, 0.0, 0.0, 0.0, 0.0, 1.7564858375670989E9, 0.0, 2025-08-29 13:43:57.567
90.0, -1092.217212609481, -165.5204922389239, -1206.5945729543455, 336.74620186025277, 0.0, 0.04800000227987766, 0.9760000463575125, 0.0, 0.0, 0.0, 0.0, 0.0, 1.756485837567813E9, 0.0, 2025-08-29 13:43:57.567
90.0, -977.521960768383, 25.135867602191865, -1245.2838379959576, 272.08707152632996, 0.0, 0.04800000227987766, 0.9760000463575125, 0.0, 0.0, 0.0, 0.0, 0.0, 1.756485837567813E9, 0.0, 2025-08-29 13:43:57.567
91.0, -863.971118313726, 96.48567895684391, -1434.8743263497017, 79.95345120271668, 0.0, 0.04800000227987766, 0.9760000463575125, 0.0, 0.0, 0.0, 0.0, 0.0, 1.7564858375814528E9, 0.0, 2025-08-29 13:43:57.581
91.0, -1046.8073473474942, -128.08409368246794, -1245.8859618888237, 306.7671638154425, 0.0, 0.04800000227987766, 0.9760000463575125, 0.0, 0.0, 0.0, 0.0, 0.0, 1.7564858375814528E9, 0.0, 2025-08-29 13:43:57.581
92.0, -1211.6752270441502, -48.95903031993657, -1173.3281628484838, 386.673866268713, 0.0, 0.04800000227987766, 0.9760000463575125, 0.0, 0.0, 0.0, 0.0, 0.0, 1.756485837597155E9, 0.0, 2025-08-29 13:43:57.597
92.0, -1257.0944420560263, 130.5449478533119, -1410.1274083429016, 150.89187356224284, 0.0, 0.04800000227987766, 0.9760000463575125, 0.0, 0.0, 0.0, 0.0, 0.0, 1.756485837597155E9, 0.0, 2025-08-29 13:43:57.597
93.0, -1340.2473776708357, -50.38393220305443, -1348.0787281780504, 206.2274333066307, 0.0, 0.04800000227987766, 0.9760000463575125, 0.0, 0.0, 0.0, 0.0, 0.0, 1.756485837597813E9, 0.0, 2025-08-29 13:43:57.597
93.0, -1451.2064694561996, -134.62891860492527, -1152.5193594950251, 403.71285046683624, 0.0, 0.04800000227987766, 0.9760000463575125, 0.0, 0.0, 0.0, 0.0, 0.0, 1.756485837597813E9, 0.0, 2025-08-29 13:43:57.597
94.0, -1293.0685397298075, 92.4166678050533, -1343.3253153343685, 207.60745639028028, 0.0, 0.04800000227987766, 0.9760000463575125, 0.0, 0.0, 0.0, 0.0, 0.0, 1.7564858376114047E9, 0.0, 2025-08-29 13:43:57.611
94.0, -1079.5819606091827, 31.605894525535405, -1422.5887549952604, 129.35752961738035, 0.0, 0.04800000227987766, 0.9760000463575125, 0.0, 0.0, 0.0, 0.0, 0.0, 1.7564858376114047E9, 0.0, 2025-08-29 13:43:57.611
95.0, -1075.3502638093196, -151.94091549981385, -1657.822852358222, -106.26925724092871, 0.0, 0.04800000227987766, 0.9760000463575125, 0.0, 0.0, 0.0, 0.0, 0.0, 1.7564858376271627E9, 0.0, 2025-08-29 13:43:57.627
95.0, -964.5108488225378, 29.43675255123526, -1717.4218980520964, -176.20912631228566, 0.0, 0.04800000227987766, 0.9760000463575125, 0.0, 0.0, 0.0, 0.0, 0.0, 1.7564858376271627E9, 0.0, 2025-08-29 13:43:57.627
96.0, -853.9332268326543, 108.61043461319059, -1916.051724598743, -381.3201994821429, 0.0, 0.04800000227987766, 0.9760000463575125, 0.0, 0.0, 0.0, 0.0, 0.0, 1.7564858376279116E9, 0.0, 2025-08-29 13:43:57.627
96.0, -1022.9430457302369, -125.47738341335207, -1727.2054763361812, -200.85132712032646, 0.0, 0.04800000227987766, 0.9760000463575125, 0.0, 0.0, 0.0, 0.0, 0.0, 1.7564858376279116E9, 0.0, 2025-08-29 13:43:57.627
97.0, -1203.3053309433162, -54.85685255005956, -1632.3803129596636, -104.02157736755908, 0.0, 0.04800000227987766, 0.9760000463575125, 0.0, 0.0, 0.0, 0.0, 0.0, 1.7564858376578033E9, 0.0, 2025-08-29 13:43:57.657
97.0, -1248.9638995523565, 113.7565369522199, -1402.355896234978, -336.116028717719, 0.0, 0.04800000227987766, 0.9760000463575125, 0.0, 0.0, 0.0, 0.0, 0.0, 1.7564858376578033E9, 0.0, 2025-08-29 13:43:57.657
98.0, -1334.3009367412888, -55.63101184088737, -1329.4091475992464, -276.3187683261931, 0.0, 0.04800000227987766, 0.9760000463575125, 0.0, 0.0, 0.0, 0.0, 0.0, 1.7564858376585236E9, 0.0, 2025-08-29 13:43:57.658
98.0, -1443.494795747567, -136.52504788246006, -1140.8359120334499, -93.84904948808253, 0.0, 0.04800000227987766, 0.9760000463575125, 0.0, 0.0, 0.0, 0.0, 0.0, 1.7564858376585236E9, 0.0, 2025-08-29 13:43:57.658
99.0, -1285.910371214617, 90.4120814288035, -1339.7462310767733, -277.1004074169323, 0.0, 0.04800000227987766, 0.9760000463575125, 0.0, 0.0, 0.0, 0.0, 0.0, 1.7564858376592512E9, 0.0, 2025-08-29 13:43:57.659
99.0, -1078.1159198265523, 41.77094260510057, -1424.6980585702695, -367.6920040436089, 0.0, 0.04800000227987766, 0.9760000463575125, 0.0, 0.0, 0.0, 0.0, 0.0, 1.7564858376592512E9, 0.0, 2025-08-29 13:43:57.659
100.0, -1081.1676781903952, -155.05251226294786, -1665.6878619650379, -122.77343574538827, 0.0, 0.04800000227987766, 0.9760000463575125, 0.0, 0.0, 0.0, 0.0, 0.0, 1.75648583767213E9, 0.0, 2025-08-29 13:43:57.672
100.0, -956.3971358686686, 26.93475948087871, -1712.096280515194, -172.98907245043665, 0.0, 0.04800000227987766, 0.9760000463575125, 0.0, 0.0, 0.0, 0.0, 0.0, 1.75648583767213E9, 0.0, 2025-08-29 13:43:57.672
0.0, 124.56858772411942, 100.13021146366373, -454.82045331131667, -389.82286203140393, 0.0, 0.04800000227987766, 0.9760000463575125, 0.0, 0.0, 0.0, 0.0, 0.0, 1.7564858376728632E9, 0.0, 2025-08-29 13:43:57.672
1.0, -59.408310796134174, -137.80596361728385, -289.68143086787313, -218.83837595721707, 0.0, 0.04800000227987766, 0.9760000463575125, 0.0, 0.0, 0.0, 0.0, 0.0, 1.7564858376864536E9, 0.0, 2025-08-29 13:43:57.686
1.0, -232.69844519300386, -62.746171506587416, -186.74068458750844, -114.40166969457641, 0.0, 0.04800000227987766, 0.9760000463575125, 0.0, 0.0, 0.0, 0.0, 0.0, 1.7564858376864536E9, 0.0, 2025-08-29 13:43:57.686
2.0, -272.9416386662051, 113.98654079949483, 57.4168140697293, 129.2883414682001, 0.0, 0.04800000227987766, 0.9760000463575125, 0.0, 0.0, 0.0, 0.0, 0.0, 1.7564858377021534E9, 0.0, 2025-08-29 13:43:57.702
2.0, -350.4548051478341, -62.07298951456323, 126.28707175375894, 186.02636369597167, 0.0, 0.04800000227987766, 0.9760000463575125, 0.0, 0.0, 0.0, 0.0, 0.0, 1.7564858377021534E9, 0.0, 2025-08-29 13:43:57.702
3.0, -474.02109968382865, -162.6837781225331, 328.67175785591826, 380.12343149632215, 0.0, 0.04800000227987766, 0.9760000463575125, 0.0, 0.0, 0.0, 0.0, 0.0, 1.7564858377028608E9, 0.0, 2025-08-29 13:43:57.702
3.0, -312.3676639990881, 65.63337427238002, 143.2362983529456, 202.04061530623585, 0.0, 0.04800000227987766, 0.9760000463575125, 0.0, 0.0, 0.0, 0.0, 0.0, 1.7564858377028608E9, 0.0, 2025-08-29 13:43:57.702
4.0, -91.6892572636716, 15.672050764318556, 47.97730658156797, 117.63107330631465, 0.0, 0.04800000227987766, 0.9760000463575125, 0.0, 0.0, 0.0, 0.0, 0.0, 1.756485837716457E9, 0.0, 2025-08-29 13:43:57.716
4.0, -100.86323185497895, -173.95957648893818, -192.7544437162578, -126.25341265415773, 0.0, 0.04800000227987766, 0.9760000463575125, 0.0, 0.0, 0.0, 0.0, 0.0, 1.756485837716457E9, 0.0, 2025-08-29 13:43:57.716
5.0, 17.340046144556254, 14.800654074642807, -254.85548248048872, -198.20160800172016, 0.0, 0.04800000227987766, 0.9760000463575125, 0.0, 0.0, 0.0, 0.0, 0.0, 1.7564858377321038E9, 0.0, 2025-08-29 13:43:57.732
5.0, 122.51351269846782, 95.46281631896272, -470.109164330177, -408.82903360622004, 0.0, 0.04800000227987766, 0.9760000463575125, 0.0, 0.0, 0.0, 0.0, 0.0, 1.7564858377321038E9, 0.0, 2025-08-29 13:43:57.732
6.0, -53.8227702123113, -128.31035762978718, -263.33009578008205, -221.96493232017383, 0.0, 0.04800000227987766, 0.9760000463575125, 0.0, 0.0, 0.0, 0.0, 0.0, 1.75648583773286E9, 0.0, 2025-08-29 13:43:57.732
6.0, -225.12701773270965, -71.14598680706695, -171.07050377316773, -116.6680490677245, 0.0, 0.04800000227987766, 0.9760000463575125, 0.0, 0.0, 0.0, 0.0, 0.0, 1.75648583773286E9, 0.0, 2025-08-29 13:43:57.732
7.0, -258.31301998952404, 112.86457081278786, -411.25061882752925, 128.360846279189, 0.0, 0.04800000227987766, 0.9760000463575125, 0.0, 0.0, 0.0, 0.0, 0.0, 1.7564858377464447E9, 0.0, 2025-08-29 13:43:57.746
7.0, -359.84382398659363, -73.98831077339128, -369.1692645261064, 178.57648298423737, 0.0, 0.04800000227987766, 0.9760000463575125, 0.0, 0.0, 0.0, 0.0, 0.0, 1.7564858377464447E9, 0.0, 2025-08-29 13:43:57.746
8.0, -468.7871096958406, -151.44537875568494, -168.10850300826132, 385.8155592288822, 0.0, 0.04800000227987766, 0.9760000463575125, 0.0, 0.0, 0.0, 0.0, 0.0, 1.7564858377621012E9, 0.0, 2025-08-29 13:43:57.762
8.0, -306.4941511186771, 83.16976516461, -359.7596762375906, 187.421346379444, 0.0, 0.04800000227987766, 0.9760000463575125, 0.0, 0.0, 0.0, 0.0, 0.0, 1.7564858377621012E9, 0.0, 2025-08-29 13:43:57.762
9.0, -89.77255853638053, 18.233882233966142, -441.2109573725611, 114.36240074504167, 0.0, 0.04800000227987766, 0.9760000463575125, 0.0, 0.0, 0.0, 0.0, 0.0, 1.75648583776281E9, 0.0, 2025-08-29 13:43:57.762
9.0, -98.38554813433439, -170.33561343187466, -682.0960435685702, 350.4548051478341, 0.0, 0.04800000227987766, 0.9760000463575125, 0.0, 0.0, 0.0, 0.0, 0.0, 1.75648583776281E9, 0.0, 2025-08-29 13:43:57.762
10.0, 17.887941488064826, 10.974736419972032, -737.2520881150849, 293.952396617271, 0.0, 0.04800000227987766, 0.9760000463575125, 0.0, 0.0, 0.0, 0.0, 0.0, 1.7564858377764251E9, 0.0, 2025-08-29 13:43:57.776
10.0, 123.0576681420207, 88.82449389761314, -948.2647234150209, 99.91516721621156, 0.0, 0.04800000227987766, 0.9760000463575125, 0.0, 0.0, 0.0, 0.0, 0.0, 1.7564858377764251E9, 0.0, 2025-08-29 13:43:57.776
11.0, -49.333020315505564, -135.3750286460854, -771.0869630142115, 268.22562482208014, 0.0, 0.04800000227987766, 0.9760000463575125, 0.0, 0.0, 0.0, 0.0, 0.0, 1.7564858377921057E9, 0.0, 2025-08-29 13:43:57.792
11.0, -214.95261990325525, -71.41525960387662, -650.1124191475101, 370.19399711396545, 0.0, 0.04800000227987766, 0.9760000463575125, 0.0, 0.0, 0.0, 0.0, 0.0, 1.7564858377921057E9, 0.0, 2025-08-29 13:43:57.792
12.0, -257.4547129496932, 117.64042305620387, -890.8161201956682, 603.7002606973983, 0.0, 0.04800000227987766, 0.9760000463575125, 0.0, 0.0, 0.0, 0.0, 0.0, 1.7564858377928622E9, 0.0, 2025-08-29 13:43:57.792
12.0, -347.5264634825289, -51.41053474089131, -825.3229921716265, 660.5280405241065, 0.0, 0.04800000227987766, 0.9760000463575125, 0.0, 0.0, 0.0, 0.0, 0.0, 1.7564858377928622E9, 0.0, 2025-08-29 13:43:57.792
13.0, -462.173096624203, -136.62041533133015, -633.3576673460193, 876.4848235654645, 0.0, 0.04800000227987766, 0.9760000463575125, 0.0, 0.0, 0.0, 0.0, 0.0, 1.7564858378064504E9, 0.0, 2025-08-29 13:43:57.806
13.0, -298.3729583648965, 93.6564446403645, -830.4653546107002, 694.8416226175614, 0.0, 0.04800000227987766, 0.9760000463575125, 0.0, 0.0, 0.0, 0.0, 0.0, 1.7564858378064504E9, 0.0, 2025-08-29 13:43:57.806
14.0, -89.3592995912768, 38.186248497571796, -923.9516338030808, 586.3770441026427, 0.0, 0.04800000227987766, 0.9760000463575125, 0.0, 0.0, 0.0, 0.0, 0.0, 1.7564858378221023E9, 0.0, 2025-08-29 13:43:57.822
14.0, -98.39489788422361, -157.78824908053502, -1159.997289456427, 820.9884481229819, 0.0, 0.04800000227987766, 0.9760000463575125, 0.0, 0.0, 0.0, 0.0, 0.0, 1.7564858378221023E9, 0.0, 2025-08-29 13:43:57.822
15.0, 30.34741819044575, 26.214828739408404, -1225.1762658841908, 776.8688483457081, 0.0, 0.04800000227987766, 0.9760000463575125, 0.0, 0.0, 0.0, 0.0, 0.0, 1.7564858378228395E9, 0.0, 2025-08-29 13:43:57.822
15.0, 125.64380896138027, 89.8380067856051, -1451.5075314026326, 559.1019537257962, 0.0, 0.04800000227987766, 0.9760000463575125, 0.0, 0.0, 0.0, 0.0, 0.0, 1.7564858378228395E9, 0.0, 2025-08-29 13:43:57.822
16.0, -57.08022307371721, -144.0889955428429, -1244.8257002513856, 758.5283789630048, 0.0, 0.04800000227987766, 0.9760000463575125, 0.0, 0.0, 0.0, 0.0, 0.0, 1.756485837836478E9, 0.0, 2025-08-29 13:43:57.836
16.0, -236.91892229299992, -78.4612311203964, -1162.1402521310374, 834.6465627611615, 0.0, 0.04800000227987766, 0.9760000463575125, 0.0, 0.0, 0.0, 0.0, 0.0, 1.756485837836478E9, 0.0, 2025-08-29 13:43:57.836
17.0, -268.49676756886765, 96.37909180810675, -920.34263034584, 1072.6220067916438, 0.0, 0.04800000227987766, 0.9760000463575125, 0.0, 0.0, 0.0, 0.0, 0.0, 1.7564858378521063E9, 0.0, 2025-08-29 13:43:57.852
17.0, -365.65562851773575, -80.08434770116583, -865.889686990995, 1129.5881629167125, 0.0, 0.04800000227987766, 0.9760000463575125, 0.0, 0.0, 0.0, 0.0, 0.0, 1.7564858378521063E9, 0.0, 2025-08-29 13:43:57.852
18.0, -482.0338353388943, -161.6179066351615, -652.9136042143218, 1358.9300478994846, 0.0, 0.04800000227987766, 0.9760000463575125, 0.0, 0.0, 0.0, 0.0, 0.0, 1.7564858378528528E9, 0.0, 2025-08-29 13:43:57.852
18.0, -307.7582373037003, 72.65316648920998, -850.5037385732867, 1166.1045460840687, 0.0, 0.04800000227987766, 0.9760000463575125, 0.0, 0.0, 0.0, 0.0, 0.0, 1.7564858378528528E9, 0.0, 2025-08-29 13:43:57.852
19.0, -108.3112426167354, 15.189603670034558, -944.5061239595525, 1062.1166278161108, 0.0, 0.04800000227987766, 0.9760000463575125, 0.0, 0.0, 0.0, 0.0, 0.0, 1.7564858378664384E9, 0.0, 2025-08-29 13:43:57.866
19.0, -120.54445537179708, -178.00988814095035, -1185.40990965534, 818.0002680583857, 0.0, 0.04800000227987766, 0.9760000463575125, 0.0, 0.0, 0.0, 0.0, 0.0, 1.7564858378664384E9, 0.0, 2025-08-29 13:43:57.866
20.0, 20.16554056107998, 9.938784132245928, -1236.6278395485133, 761.9055086229928, 0.0, 0.04800000227987766, 0.9760000463575125, 0.0, 0.0, 0.0, 0.0, 0.0, 1.7564858378821084E9, 0.0, 2025-08-29 13:43:57.882
20.0, 118.42393209692091, 70.22223151801154, -1458.2356114229187, 547.321268865373, 0.0, 0.04800000227987766, 0.9760000463575125, 0.0, 0.0, 0.0, 0.0, 0.0, 1.7564858378821084E9, 0.0, 2025-08-29 13:43:57.882
21.0, -70.74768746178597, -159.14209286449477, -1264.2357810214162, 730.9204374901019, 0.0, 0.04800000227987766, 0.9760000463575125, 0.0, 0.0, 0.0, 0.0, 0.0, 1.7564858378828351E9, 0.0, 2025-08-29 13:43:57.882
21.0, -234.29538247408345, -92.11186595866457, -1169.5901328427717, 834.2501333658583, 0.0, 0.04800000227987766, 0.9760000463575125, 0.0, 0.0, 0.0, 0.0, 0.0, 1.7564858378828351E9, 0.0, 2025-08-29 13:43:57.882
22.0, -274.9911038419232, 83.0201691663824, -928.9930189433508, 1065.6583130741492, 0.0, 0.04800000227987766, 0.9760000463575125, 0.0, 0.0, 0.0, 0.0, 0.0, 1.7564858378963783E9, 0.0, 2025-08-29 13:43:57.896
22.0, -375.1007458558306, -82.52276247227564, -880.9801833122037, 1118.185207951814, 0.0, 0.04800000227987766, 0.9760000463575125, 0.0, 0.0, 0.0, 0.0, 0.0, 1.7564858378963783E9, 0.0, 2025-08-29 13:43:57.896
23.0, -496.44179991818964, -171.8091340144165, -665.6180443638004, 1342.4894476942718, 0.0, 0.04800000227987766, 0.9760000463575125, 0.0, 0.0, 0.0, 0.0, 0.0, 1.756485837912126E9, 0.0, 2025-08-29 13:43:57.912
23.0, -318.0672715315595, 59.42140044597909, -850.6159355719574, 1154.51085622143, 0.0, 0.04800000227987766, 0.9760000463575125, 0.0, 0.0, 0.0, 0.0, 0.0, 1.756485837912126E9, 0.0, 2025-08-29 13:43:57.912
24.0, -117.16171586187556, 7.275975363794714, -936.9029073496349, 1062.8833073070273, 0.0, 0.04800000227987766, 0.9760000463575125, 0.0, 0.0, 0.0, 0.0, 0.0, 1.7564858379129684E9, 0.0, 2025-08-29 13:43:57.912
24.0, -140.10974198998883, -191.52588658081368, -693.4765591337346, 819.5635462398641, 0.0, 0.04800000227987766, 0.9760000463575125, 0.0, 0.0, 0.0, 0.0, 0.0, 1.7564858379129684E9, 0.0, 2025-08-29 13:43:57.912
25.0, -8.046394754666835, -5.634159283246845, -748.9991138759069, 754.8333578067832, 0.0, 0.04800000227987766, 0.9760000463575125, 0.0, 0.0, 0.0, 0.0, 0.0, 1.7564858379264317E9, 0.0, 2025-08-29 13:43:57.926
25.0, 90.97119647217914, 64.61612148443237, -966.2162432023324, 534.4373135180213, 0.0, 0.04800000227987766, 0.9760000463575125, 0.0, 0.0, 0.0, 0.0, 0.0, 1.7564858379264317E9, 0.0, 2025-08-29 13:43:57.926
26.0, -98.9895419771783, -159.983570354525, -773.746031882707, 720.4412378142588, 0.0, 0.04800000227987766, 0.9760000463575125, 0.0, 0.0, 0.0, 0.0, 0.0, 1.7564858379420793E9, 0.0, 2025-08-29 13:43:57.942
26.0, -261.92389339674264, -91.0609540711157, -682.8851624592207, 824.6348505797796, 0.0, 0.04800000227987766, 0.9760000463575125, 0.0, 0.0, 0.0, 0.0, 0.0, 1.7564858379420793E9, 0.0, 2025-08-29 13:43:57.942
27.0, -284.35020348103717, 102.42277013650164, -925.9898792789318, 584.8885639202781, 0.0, 0.04800000227987766, 0.9760000463575125, 0.0, 0.0, 0.0, 0.0, 0.0, 1.7564858379428089E9, 0.0, 2025-08-29 13:43:57.942
27.0, -408.4812229103409, -77.73943042894825, -889.2304026144557, 637.8156280932017, 0.0, 0.04800000227987766, 0.9760000463575125, 0.0, 0.0, 0.0, 0.0, 0.0, 1.7564858379428089E9, 0.0, 2025-08-29 13:43:57.942
28.0, -514.660722552333, -157.54889548337087, -659.1330578406341, 863.6158278179355, 0.0, 0.04800000227987766, 0.9760000463575125, 0.0, 0.0, 0.0, 0.0, 0.0, 1.7564858379564123E9, 0.0, 2025-08-29 13:43:57.956
28.0, -334.07965319184586, 73.21789138251916, -867.191172175575, 644.6708647119813, 0.0, 0.04800000227987766, 0.9760000463575125, 0.0, 0.0, 0.0, 0.0, 0.0, 1.7564858379564123E9, 0.0, 2025-08-29 13:43:57.956
29.0, -133.07312022335827, 12.28744130441919, -966.4967356990092, 533.5172981289215, 0.0, 0.04800000227987766, 0.9760000463575125, 0.0, 0.0, 0.0, 0.0, 0.0, 1.7564858379721107E9, 0.0, 2025-08-29 13:43:57.972
29.0, -146.07675236929208, -177.49752184702083, -1164.4515103036538, 327.0729506248608, 0.0, 0.04800000227987766, 0.9760000463575125, 0.0, 0.0, 0.0, 0.0, 0.0, 1.7564858379721107E9, 0.0, 2025-08-29 13:43:57.972
30.0, -13.467379740439355, -1.0116429380141199, -1230.0306560266763, 260.00158481951803, 0.0, 0.04800000227987766, 0.9760000463575125, 0.0, 0.0, 0.0, 0.0, 0.0, 1.7564858379728355E9, 0.0, 2025-08-29 13:43:57.972
30.0, 88.82636384759098, 73.93969207396731, -1436.1103632850572, 48.102593230083585, 0.0, 0.04800000227987766, 0.9760000463575125, 0.0, 0.0, 0.0, 0.0, 0.0, 1.7564858379728355E9, 0.0, 2025-08-29 13:43:57.972
31.0, -104.63492096029222, -144.9379528327845, -1254.7551346337423, 238.76643287111074, 0.0, 0.04800000227987766, 0.9760000463575125, 0.0, 0.0, 0.0, 0.0, 0.0, 1.7564858379864328E9, 0.0, 2025-08-29 13:43:57.986
31.0, -251.03891457570717, -61.194113024976104, -1154.282722324133, 342.9675254365429, 0.0, 0.04800000227987766, 0.9760000463575125, 0.0, 0.0, 0.0, 0.0, 0.0, 1.7564858379864328E9, 0.0, 2025-08-29 13:43:57.986
32.0, -298.04758706875145, 116.71292786719278, -926.782738069538, 566.9819229324348, 0.0, 0.04800000227987766, 0.9760000463575125, 0.0, 0.0, 0.0, 0.0, 0.0, 1.7564858380021489E9, 0.0, 2025-08-29 13:43:58.002
32.0, -398.79301207512617, -57.05778367398307, -851.4013145626523, 640.7888485579751, 0.0, 0.04800000227987766, 0.9760000463575125, 0.0, 0.0, 0.0, 0.0, 0.0, 1.7564858380021489E9, 0.0, 2025-08-29 13:43:58.002
33.0, -488.7937045088038, -119.79460543068126, -649.4093179558404, 854.3296562279575, 0.0, 0.04800000227987766, 0.9760000463575125, 0.0, 0.0, 0.0, 0.0, 0.0, 1.7564858380028253E9, 0.0, 2025-08-29 13:43:58.002
33.0, -304.61485139094293, 98.11066548759118, -836.1126035437919, 658.0559666533954, 0.0, 0.04800000227987766, 0.9760000463575125, 0.0, 0.0, 0.0, 0.0, 0.0, 1.7564858380028253E9, 0.0, 2025-08-29 13:43:58.002
34.0, -96.85031920252368, 44.58147742180154, -933.0395906954072, 555.9230387634598, 0.0, 0.04800000227987766, 0.9760000463575125, 0.0, 0.0, 0.0, 0.0, 0.0, 1.756485838016436E9, 0.0, 2025-08-29 13:43:58.016
34.0, -99.8048401675187, -140.13218138972297, -1159.541021661833, 320.09055740758777, 0.0, 0.04800000227987766, 0.9760000463575125, 0.0, 0.0, 0.0, 0.0, 0.0, 1.756485838016436E9, 0.0, 2025-08-29 13:43:58.016
35.0, 54.387495105620474, 42.86112344218418, -1231.0927876140922, 263.6479872763157, 0.0, 0.04800000227987766, 0.9760000463575125, 0.0, 0.0, 0.0, 0.0, 0.0, 1.7564858380484488E9, 0.0, 2025-08-29 13:43:58.048
35.0, 151.23220445821062, 112.1839090208523, -1455.748577952385, 39.209111135452986, 0.0, 0.04800000227987766, 0.9760000463575125, 0.0, 0.0, 0.0, 0.0, 0.0, 1.7564858380484488E9, 0.0, 2025-08-29 13:43:58.048
36.0, -43.111696739215404, -113.40311640640721, -1255.409617125988, 236.50753329787403, 0.0, 0.04800000227987766, 0.9760000463575125, 0.0, 0.0, 0.0, 0.0, 0.0, 1.756485838049178E9, 0.0, 2025-08-29 13:43:58.049
36.0, -199.99862993042916, -45.17612151475623, -1147.9996903985739, 338.9733122838661, 0.0, 0.04800000227987766, 0.9760000463575125, 0.0, 0.0, 0.0, 0.0, 0.0, 1.756485838049178E9, 0.0, 2025-08-29 13:43:58.049
37.0, -228.99220433691517, 128.73296632478014, -931.3790751150809, 578.0744662010111, 0.0, 0.04800000227987766, 0.9760000463575125, 0.0, 0.0, 0.0, 0.0, 0.0, 1.7564858380499318E9, 0.0, 2025-08-29 13:43:58.049
37.0, -324.9505574000068, -39.98140047630295, -875.6919647748582, 639.6369593716227, 0.0, 0.04800000227987766, 0.9760000463575125, 0.0, 0.0, 0.0, 0.0, 0.0, 1.7564858380499318E9, 0.0, 2025-08-29 13:43:58.049
38.0, -433.69562841160223, -124.88460927037522, -664.4025768782012, 839.4485943042673, 0.0, 0.04800000227987766, 0.9760000463575125, 0.0, 0.0, 0.0, 0.0, 0.0, 1.756485838050674E9, 0.0, 2025-08-29 13:43:58.050
38.0, -262.97667523426935, 86.40851852623746, -860.5565896541812, 639.8351740692742, 0.0, 0.04800000227987766, 0.9760000463575125, 0.0, 0.0, 0.0, 0.0, 0.0, 1.756485838050674E9, 0.0, 2025-08-29 13:43:58.050
39.0, -70.90102335996926, 33.47023465344682, -953.594080851879, 533.2742046318017, 0.0, 0.04800000227987766, 0.9760000463575125, 0.0, 0.0, 0.0, 0.0, 0.0, 1.7564858380614965E9, 0.0, 2025-08-29 13:43:58.061
39.0, -82.39373592380434, -151.1686261589639, -1185.0882782591507, 295.75876829586923, 0.0, 0.04800000227987766, 0.9760000463575125, 0.0, 0.0, 0.0, 0.0, 0.0, 1.7564858380614965E9, 0.0, 2025-08-29 13:43:58.061
40.0, 59.22131579834968, 31.028079982381314, -1247.6979434173554, 254.92280067969114, 0.0, 0.04800000227987766, 0.9760000463575125, 0.0, 0.0, 0.0, 0.0, 0.0, 1.7564858380763724E9, 0.0, 2025-08-29 13:43:58.076
40.0, 142.16107711568475, 99.78614066774026, -1473.3410673439503, 37.88518655113876, 0.0, 0.04800000227987766, 0.9760000463575125, 0.0, 0.0, 0.0, 0.0, 0.0, 1.7564858380763724E9, 0.0, 2025-08-29 13:43:58.076
41.0, -56.6557444287464, -118.93442844087258, -1285.4559733700007, 229.90286997612566, 0.0, 0.04800000227987766, 0.9760000463575125, 0.0, 0.0, 0.0, 0.0, 0.0, 1.7564858380921268E9, 0.0, 2025-08-29 13:43:58.092
41.0, -202.76802584761754, -52.60730272671208, -1171.7069162176922, 317.01635964401066, 0.0, 0.04800000227987766, 0.9760000463575125, 0.0, 0.0, 0.0, 0.0, 0.0, 1.7564858380921268E9, 0.0, 2025-08-29 13:43:58.092
42.0, -252.24877221137285, 114.49890709342435, -938.7092790282331, 545.6831926847808, 0.0, 0.04800000227987766, 0.9760000463575125, 0.0, 0.0, 0.0, 0.0, 0.0, 1.7564858380928338E9, 0.0, 2025-08-29 13:43:58.092
42.0, -364.1390990857035, -48.276498578023165, -873.3320879028179, 597.6304030693136, 0.0, 0.04800000227987766, 0.9760000463575125, 0.0, 0.0, 0.0, 0.0, 0.0, 1.7564858380928338E9, 0.0, 2025-08-29 13:43:58.092
43.0, -453.7620616238564, -122.80522489501163, -648.1377519709058, 832.7018147842027, 0.0, 0.04800000227987766, 0.9760000463575125, 0.0, 0.0, 0.0, 0.0, 0.0, 1.756485838106404E9, 0.0, 2025-08-29 13:43:58.106
43.0, -285.6535586155951, 100.77347425604239, -842.8257239642553, 661.8594449083321, 0.0, 0.04800000227987766, 0.9760000463575125, 0.0, 0.0, 0.0, 0.0, 0.0, 1.756485838106404E9, 0.0, 2025-08-29 13:43:58.106
44.0, -98.1031856876798, 36.39483641879633, -950.3702870900743, 554.6140737789683, 0.0, 0.04800000227987766, 0.9760000463575125, 0.0, 0.0, 0.0, 0.0, 0.0, 1.7564858381221023E9, 0.0, 2025-08-29 13:43:58.122
44.0, -111.75008062599227, -161.37481313804165, -1183.7531339749694, 315.1127505665645, 0.0, 0.04800000227987766, 0.9760000463575125, 0.0, 0.0, 0.0, 0.0, 0.0, 1.7564858381221023E9, 0.0, 2025-08-29 13:43:58.122
45.0, 23.10697187623009, 21.678330093156546, -1243.5765736661851, 250.76029202900827, 0.0, 0.04800000227987766, 0.9760000463575125, 0.0, 0.0, 0.0, 0.0, 0.0, 1.7564858381228316E9, 0.0, 2025-08-29 13:43:58.122
45.0, 105.30997290229425, 92.58683325303718, -1462.2560038752854, 17.816883388906717, 0.0, 0.04800000227987766, 0.9760000463575125, 0.0, 0.0, 0.0, 0.0, 0.0, 1.7564858381228316E9, 0.0, 2025-08-29 13:43:58.122
46.0, -93.46570974262431, -131.36211599363014, -1281.4019218180329, 218.94870300590992, 0.0, 0.04800000227987766, 0.9760000463575125, 0.0, 0.0, 0.0, 0.0, 0.0, 1.7564858381364613E9, 0.0, 2025-08-29 13:43:58.136
46.0, -230.4451554697007, -63.209919101092964, -1178.5135341370478, 329.83673669211566, 0.0, 0.04800000227987766, 0.9760000463575125, 0.0, 0.0, 0.0, 0.0, 0.0, 1.7564858381364613E9, 0.0, 2025-08-29 13:43:58.136
47.0, -278.13074985472485, 110.57575203990564, -938.0847157356329, 566.2189833414741, 0.0, 0.04800000227987766, 0.9760000463575125, 0.0, 0.0, 0.0, 0.0, 0.0, 1.7564858381521318E9, 0.0, 2025-08-29 13:43:58.152
47.0, -386.00442417664453, -71.89022689824924, -873.2647697036155, 632.3553741578944, 0.0, 0.04800000227987766, 0.9760000463575125, 0.0, 0.0, 0.0, 0.0, 0.0, 1.7564858381521318E9, 0.0, 2025-08-29 13:43:58.152
48.0, -470.5411227750592, -151.50895705493167, -641.0543814548291, 853.2002064413391, 0.0, 0.04800000227987766, 0.9760000463575125, 0.0, 0.0, 0.0, 0.0, 0.0, 1.7564858381528628E9, 0.0, 2025-08-29 13:43:58.152
48.0, -311.1952053629793, 74.40717956842855, -856.8952275975607, 621.4012071876787, 0.0, 0.04800000227987766, 0.9760000463575125, 0.0, 0.0, 0.0, 0.0, 0.0, 1.7564858381528628E9, 0.0, 2025-08-29 13:43:58.152
49.0, -132.38871853146702, 2.8666333160363138, -950.867693784181, 520.9362746779807, 0.0, 0.04800000227987766, 0.9760000463575125, 0.0, 0.0, 0.0, 0.0, 0.0, 1.7564858381664448E9, 0.0, 2025-08-29 13:43:58.166
49.0, -138.28654076159, -187.87948412401602, -1177.1335110533983, 294.700376608409, 0.0, 0.04800000227987766, 0.9760000463575125, 0.0, 0.0, 0.0, 0.0, 0.0, 1.7564858381664448E9, 0.0, 2025-08-29 13:43:58.166
50.0, 14.727726025506854, 9.534874937031418, -1230.9132724162191, 245.92460138630122, 0.0, 0.04800000227987766, 0.9760000463575125, 0.0, 0.0, 0.0, 0.0, 0.0, 1.756485838182125E9, 0.0, 2025-08-29 13:43:58.182
50.0, 98.13497483730316, 83.32310106279328, -1436.054264785722, 48.03153513092548, 0.0, 0.04800000227987766, 0.9760000463575125, 0.0, 0.0, 0.0, 0.0, 0.0, 1.756485838182125E9, 0.0, 2025-08-29 13:43:58.182
51.0, -87.29300486575812, -143.47565195010975, -1239.2195902178064, 244.35758330486715, 0.0, 0.04800000227987766, 0.9760000463575125, 0.0, 0.0, 0.0, 0.0, 0.0, 1.7564858381828668E9, 0.0, 2025-08-29 13:43:58.182
51.0, -227.02501696022227, -65.88768746936694, -1150.2137111723423, 354.6584526980296, 0.0, 0.04800000227987766, 0.9760000463575125, 0.0, 0.0, 0.0, 0.0, 0.0, 1.7564858381828668E9, 0.0, 2025-08-29 13:43:58.182
52.0, -277.19390491582453, 110.35509794251993, -936.2072859578766, 566.2825616407208, 0.0, 0.04800000227987766, 0.9760000463575125, 0.0, 0.0, 0.0, 0.0, 0.0, 1.756485838196447E9, 0.0, 2025-08-29 13:43:58.196
52.0, -389.42082278616726, -62.779830606188625, -870.5608220356517, 629.8346815877594, 0.0, 0.04800000227987766, 0.9760000463575125, 0.0, 0.0, 0.0, 0.0, 0.0, 1.756485838196447E9, 0.0, 2025-08-29 13:43:58.196
53.0, -484.8518499555066, -140.4949516854249, -646.6866707880981, 862.2208451344632, 0.0, 0.04800000227987766, 0.9760000463575125, 0.0, 0.0, 0.0, 0.0, 0.0, 1.756485838212116E9, 0.0, 2025-08-29 13:43:58.212
53.0, -306.08837197348475, 81.60274708317593, -844.4189213453792, 685.656428326387, 0.0, 0.04800000227987766, 0.9760000463575125, 0.0, 0.0, 0.0, 0.0, 0.0, 1.756485838212116E9, 0.0, 2025-08-29 13:43:58.212
54.0, -115.86771047720686, 23.451042672153562, -922.3584364219569, 590.9359821486287, 0.0, 0.04800000227987766, 0.9760000463575125, 0.0, 0.0, 0.0, 0.0, 0.0, 1.7564858382129476E9, 0.0, 2025-08-29 13:43:58.212
54.0, -125.21372046647593, -163.9142052079551, -678.3785830126144, 361.0275023225695, 0.0, 0.04800000227987766, 0.9760000463575125, 0.0, 0.0, 0.0, 0.0, 0.0, 1.7564858382129476E9, 0.0, 2025-08-29 13:43:58.212
55.0, 25.257414350751787, 23.60811847029254, -741.9494024594314, 308.377190746367, 0.0, 0.04800000227987766, 0.9760000463575125, 0.0, 0.0, 0.0, 0.0, 0.0, 1.7564858382264583E9, 0.0, 2025-08-29 13:43:58.226
55.0, 116.79894556617364, 92.51951505383477, -957.7079708031379, 79.54393215756863, 0.0, 0.04800000227987766, 0.9760000463575125, 0.0, 0.0, 0.0, 0.0, 0.0, 1.7564858382264583E9, 0.0, 2025-08-29 13:43:58.226
56.0, -82.82943426864222, -132.13627528445795, -758.2591061661951, 269.916059602052, 0.0, 0.04800000227987766, 0.9760000463575125, 0.0, 0.0, 0.0, 0.0, 0.0, 1.7564858382421143E9, 0.0, 2025-08-29 13:43:58.242
56.0, -221.9181835707277, -64.1598536898382, -658.1232848525979, 375.2802610537037, 0.0, 0.04800000227987766, 0.9760000463575125, 0.0, 0.0, 0.0, 0.0, 0.0, 1.7564858382421143E9, 0.0, 2025-08-29 13:43:58.242
57.0, -267.75626737764105, 108.3654711660929, -437.67301201447845, 600.5961437341757, 0.0, 0.04800000227987766, 0.9760000463575125, 0.0, 0.0, 0.0, 0.0, 0.0, 1.756485838242833E9, 0.0, 2025-08-29 13:43:58.242
57.0, -379.32122295582667, -60.12824153760448, -365.41814487054944, 667.3795372429304, 0.0, 0.04800000227987766, 0.9760000463575125, 0.0, 0.0, 0.0, 0.0, 0.0, 1.756485838242833E9, 0.0, 2025-08-29 13:43:58.242
58.0, -479.07931437389925, -127.4501806399785, -155.20958806108683, 889.5894330102019, 0.0, 0.04800000227987766, 0.9760000463575125, 0.0, 0.0, 0.0, 0.0, 0.0, 1.7564858382564008E9, 0.0, 2025-08-29 13:43:58.256
58.0, -306.2473177216016, 81.03802218986675, -353.121353816241, 674.1113571631722, 0.0, 0.04800000227987766, 0.9760000463575125, 0.0, 0.0, 0.0, 0.0, 0.0, 1.7564858382564008E9, 0.0, 2025-08-29 13:43:58.256
59.0, -110.47664469107985, 17.605579041410238, -442.44512435793877, 586.2947663036175, 0.0, 0.04800000227987766, 0.9760000463575125, 0.0, 0.0, 0.0, 0.0, 0.0, 1.7564858382721348E9, 0.0, 2025-08-29 13:43:58.272
59.0, -129.60249306447804, -170.59366652881727, -675.9663475411944, 346.8046627910808, 0.0, 0.04800000227987766, 0.9760000463575125, 0.0, 0.0, 0.0, 0.0, 0.0, 1.7564858382721348E9, 0.0, 2025-08-29 13:43:58.272
60.0, 15.255051919259131, 12.867125797551125, -739.3389522903599, 286.7007306031883, 0.0, 0.04800000227987766, 0.9760000463575125, 0.0, 0.0, 0.0, 0.0, 0.0, 1.7564858382728326E9, 0.0, 2025-08-29 13:43:58.272
60.0, 112.41017296817154, 88.4654635018669, -966.739829196129, 75.4076028065756, 0.0, 0.04800000227987766, 0.9760000463575125, 0.0, 0.0, 0.0, 0.0, 0.0, 1.7564858382728326E9, 0.0, 2025-08-29 13:43:58.272
61.0, -90.07549043279141, -143.78232374647632, -782.5347967785783, 267.3542281324044, 0.0, 0.04800000227987766, 0.9760000463575125, 0.0, 0.0, 0.0, 0.0, 0.0, 1.756485838286417E9, 0.0, 2025-08-29 13:43:58.286
61.0, -230.65271991724148, -66.46737196249887, -660.5766592235304, 368.4998224340379, 0.0, 0.04800000227987766, 0.9760000463575125, 0.0, 0.0, 0.0, 0.0, 0.0, 1.756485838286417E9, 0.0, 2025-08-29 13:43:58.286
62.0, -268.73799111600965, 112.65513641526923, -427.57154223416, 591.8821768374182, 0.0, 0.04800000227987766, 0.9760000463575125, 0.0, 0.0, 0.0, 0.0, 0.0, 1.7564858383020985E9, 0.0, 2025-08-29 13:43:58.302
62.0, -388.0445396024734, -65.17710647778586, -360.9863634230569, 659.4509493368678, 0.0, 0.04800000227987766, 0.9760000463575125, 0.0, 0.0, 0.0, 0.0, 0.0, 1.7564858383020985E9, 0.0, 2025-08-29 13:43:58.302
63.0, -479.01760602463037, -145.46527872653678, -150.9648016113788, 885.2249697619118, 0.0, 0.04800000227987766, 0.9760000463575125, 0.0, 0.0, 0.0, 0.0, 0.0, 1.756485838302861E9, 0.0, 2025-08-29 13:43:58.302
63.0, -301.64163092616946, 81.73738348158076, -357.0931275691837, 692.4518265458755, 0.0, 0.04800000227987766, 0.9760000463575125, 0.0, 0.0, 0.0, 0.0, 0.0, 1.756485838302861E9, 0.0, 2025-08-29 13:43:58.302
64.0, -101.54015374695882, 27.52005382394418, -434.277182854712, 603.427248000633, 0.0, 0.04800000227987766, 0.9760000463575125, 0.0, 0.0, 0.0, 0.0, 0.0, 1.7564858383164697E9, 0.0, 2025-08-29 13:43:58.316
64.0, -127.42400134028867, -166.29278157977387, -663.235728092026, 361.5024696169421, 0.0, 0.04800000227987766, 0.9760000463575125, 0.0, 0.0, 0.0, 0.0, 0.0, 1.7564858383164697E9, 0.0, 2025-08-29 13:43:58.316
65.0, 18.447056531440467, 21.15848399931565, -717.3333809510805, 292.5761134335771, 0.0, 0.04800000227987766, 0.9760000463575125, 0.0, 0.0, 0.0, 0.0, 0.0, 1.7564858383321297E9, 0.0, 2025-08-29 13:43:58.332
65.0, 103.48864162387326, 81.09038078924641, -946.6378669342957, 75.13833000976592, 0.0, 0.04800000227987766, 0.9760000463575125, 0.0, 0.0, 0.0, 0.0, 0.0, 1.7564858383321297E9, 0.0, 2025-08-29 13:43:58.332
66.0, -92.11186595866457, -146.4189532152377, -757.548525174614, 266.91665983758867, 0.0, 0.04800000227987766, 0.9760000463575125, 0.0, 0.0, 0.0, 0.0, 0.0, 1.7564858383328416E9, 0.0, 2025-08-29 13:43:58.332
66.0, -231.53346635680646, -77.32430153386667, -661.691149410326, 373.87779857032, 0.0, 0.04800000227987766, 0.9760000463575125, 0.0, 0.0, 0.0, 0.0, 0.0, 1.7564858383328416E9, 0.0, 2025-08-29 13:43:58.332
67.0, -266.7764135892503, 102.6621237336658, -425.8698877543211, 602.7129271090962, 0.0, 0.04800000227987766, 0.9760000463575125, 0.0, 0.0, 0.0, 0.0, 0.0, 1.7564858383464205E9, 0.0, 2025-08-29 13:43:58.346
67.0, -389.7929428317584, -61.3811080227606, -353.8394146077335, 670.7454472030513, 0.0, 0.04800000227987766, 0.9760000463575125, 0.0, 0.0, 0.0, 0.0, 0.0, 1.7564858383464205E9, 0.0, 2025-08-29 13:43:58.346
68.0, -474.78216932481155, -138.37442841054872, -141.93668311834335, 887.2445157379843, 0.0, 0.04800000227987766, 0.9760000463575125, 0.0, 0.0, 0.0, 0.0, 0.0, 1.756485838362104E9, 0.0, 2025-08-29 13:43:58.362
68.0, -304.29508994473144, 80.23394369939342, -338.9433930842206, 684.9907261342742, 0.0, 0.04800000227987766, 0.9760000463575125, 0.0, 0.0, 0.0, 0.0, 0.0, 1.756485838362104E9, 0.0, 2025-08-29 13:43:58.362
69.0, -121.40463236160576, 20.829372803214937, -433.794735760428, 582.8727578441612, 0.0, 0.04800000227987766, 0.9760000463575125, 0.0, 0.0, 0.0, 0.0, 0.0, 1.7564858383630078E9, 0.0, 2025-08-29 13:43:58.363
69.0, -135.44421679526567, -173.83241989044473, -666.2463475563563, 358.25997635535896, 0.0, 0.04800000227987766, 0.9760000463575125, 0.0, 0.0, 0.0, 0.0, 0.0, 1.7564858383630078E9, 0.0, 2025-08-29 13:43:58.363
70.0, 14.679107326082885, 13.315913792233914, -743.1686098449863, 300.22794874291867, 0.0, 0.04800000227987766, 0.9920000471174717, 0.0, 0.0, 0.0, 0.0, 0.0, 1.7564858383764057E9, 0.0, 2025-08-29 13:43:58.376
70.0, 101.05957660265267, 82.95659086713567, -950.6358199869283, 92.67098100204021, 0.0, 0.04800000227987766, 0.9920000471174717, 0.0, 0.0, 0.0, 0.0, 0.0, 1.7564858383764057E9, 0.0, 2025-08-29 13:43:58.376
71.0, -114.43345884419978, -161.12423984101042, -754.171395514626, 274.51613654755056, 0.0, 0.04800000227987766, 0.9920000471174717, 0.0, 0.0, 0.0, 0.0, 0.0, 1.756485838392076E9, 0.0, 2025-08-29 13:43:58.392
71.0, -249.3634393955581, -78.15455932402983, -659.5070478362031, 373.9638162693009, 0.0, 0.04800000227987766, 0.9920000471174717, 0.0, 0.0, 0.0, 0.0, 0.0, 1.756485838392076E9, 0.0, 2025-08-29 13:43:58.392
72.0, -283.70133083872497, 106.12153119267896, -423.1173213869333, 615.439806658309, 0.0, 0.04800000227987766, 0.9920000471174717, 0.0, 0.0, 0.0, 0.0, 0.0, 1.7564858383928025E9, 0.0, 2025-08-29 13:43:58.392
72.0, -393.46365463826805, -71.74811069993302, -357.47833726461977, 668.0078404354863, 0.0, 0.04800000227987766, 0.9920000471174717, 0.0, 0.0, 0.0, 0.0, 0.0, 1.7564858383928025E9, 0.0, 2025-08-29 13:43:58.392
73.0, -479.46265411935747, -149.5716888778843, -152.38222369458526, 893.1198985683732, 0.0, 0.04800000227987766, 0.9920000471174717, 0.0, 0.0, 0.0, 0.0, 0.0, 1.7564858384064598E9, 0.0, 2025-08-29 13:43:58.406
73.0, -303.86687139980495, 70.4241861156188, -347.2758901854977, 689.2429923838936, 0.0, 0.04800000227987766, 0.9920000471174717, 0.0, 0.0, 0.0, 0.0, 0.0, 1.7564858384064598E9, 0.0, 2025-08-29 13:43:58.406
74.0, -111.76504022581503, 19.09405922377482, -442.93879115208983, 586.7884330977686, 0.0, 0.04800000227987766, 0.9920000471174717, 0.0, 0.0, 0.0, 0.0, 0.0, 1.7564858384221323E9, 0.0, 2025-08-29 13:43:58.422
74.0, -130.84600979974493, -178.39135793643072, -676.1570824389346, 349.77788325585425, 0.0, 0.04800000227987766, 0.9920000471174717, 0.0, 0.0, 0.0, 0.0, 0.0, 1.7564858384221323E9, 0.0, 2025-08-29 13:43:58.422
75.0, 25.077899152878672, 4.362593298312277, -752.8923497297801, 277.6576525103301, 0.0, 0.04800000227987766, 0.9920000471174717, 0.0, 0.0, 0.0, 0.0, 0.0, 1.7564858384228637E9, 0.0, 2025-08-29 13:43:58.422
75.0, 106.9592687827535, 65.07238927902654, -964.544507922139, 70.64297026302665, 0.0, 0.04800000227987766, 0.9920000471174717, 0.0, 0.0, 0.0, 0.0, 0.0, 1.7564858384228637E9, 0.0, 2025-08-29 13:43:58.422
76.0, -79.57198140723631, -147.25669080531225, -763.5622843033634, 271.18762558698654, 0.0, 0.04800000227987766, 0.9920000471174717, 0.0, 0.0, 0.0, 0.0, 0.0, 1.7564858384364388E9, 0.0, 2025-08-29 13:43:58.436
76.0, -220.53068068716675, -69.26107722939923, -665.6704029631801, 358.66762545052916, 0.0, 0.04800000227987766, 0.9920000471174717, 0.0, 0.0, 0.0, 0.0, 0.0, 1.7564858384364388E9, 0.0, 2025-08-29 13:43:58.436
77.0, -251.49892227025703, 109.97362814703956, -422.1225079987198, 125.45120411366224, 0.0, 0.04800000227987766, 0.9920000471174717, 0.0, 0.0, 0.0, 0.0, 0.0, 1.75648583845213E9, 0.0, 2025-08-29 13:43:58.452
77.0, -379.4895184538327, -71.45265860343352, -358.5142895523459, 178.14265458937734, 0.0, 0.04800000227987766, 0.9920000471174717, 0.0, 0.0, 0.0, 0.0, 0.0, 1.75648583845213E9, 0.0, 2025-08-29 13:43:58.452
78.0, -467.99799080519006, -141.65432067168877, -142.27701401431113, 392.5623387489468, 0.0, 0.04800000227987766, 0.9920000471174717, 0.0, 0.0, 0.0, 0.0, 0.0, 1.7564858384528456E9, 0.0, 2025-08-29 13:43:58.452
78.0, -282.34935700474307, 102.66960353357717, -347.33572858478874, 201.03458221815526, 0.0, 0.04800000227987766, 0.9920000471174717, 0.0, 0.0, 0.0, 0.0, 0.0, 1.7564858384528456E9, 0.0, 2025-08-29 13:43:58.452
79.0, -106.53853003773838, 34.27057324396446, -433.6413998622447, 103.20253927726299, 0.0, 0.04800000227987766, 0.9920000471174717, 0.0, 0.0, 0.0, 0.0, 0.0, 1.7564858384664266E9, 0.0, 2025-08-29 13:43:58.466
79.0, -108.57303561363369, -147.32400900451466, -670.8127654022537, -124.87338957050815, 0.0, 0.04800000227987766, 0.9920000471174717, 0.0, 0.0, 0.0, 0.0, 0.0, 1.7564858384664266E9, 0.0, 2025-08-29 13:43:58.466
80.0, 49.10488641820848, 52.99625232210383, -724.5102489660494, -181.45059610018507, 0.0, 0.04800000227987766, 0.9760000463575125, 0.0, 0.0, 0.0, 0.0, 0.0, 1.7564858384821093E9, 0.0, 2025-08-29 13:43:58.482
80.0, 133.51816831808537, 114.79435918992385, -941.858274790924, -402.33282738318667, 0.0, 0.04800000227987766, 0.9760000463575125, 0.0, 0.0, 0.0, 0.0, 0.0, 1.7564858384821093E9, 0.0, 2025-08-29 13:43:58.482
81.0, -69.08343198150396, -120.41542882332578, -745.7678403141908, -209.75789886480197, 0.0, 0.04800000227987766, 0.9760000463575125, 0.0, 0.0, 0.0, 0.0, 0.0, 1.7564858384828053E9, 0.0, 2025-08-29 13:43:58.482
81.0, -210.2665252587758, -49.069357368629426, -663.0337734944187, -124.72753347223625, 0.0, 0.04800000227987766, 0.9760000463575125, 0.0, 0.0, 0.0, 0.0, 0.0, 1.7564858384828053E9, 0.0, 2025-08-29 13:43:58.482
82.0, -259.2311654286459, 127.02757194498554, -422.7171520916745, 118.07238150108606, 0.0, 0.04800000227987766, 0.9760000463575125, 0.0, 0.0, 0.0, 0.0, 0.0, 1.756485838496464E9, 0.0, 2025-08-29 13:43:58.496
82.0, -372.89420488197356, -47.5584377865307, -345.03569011203945, 184.55284311342984, 0.0, 0.04800000227987766, 0.9760000463575125, 0.0, 0.0, 0.0, 0.0, 0.0, 1.756485838496464E9, 0.0, 2025-08-29 13:43:58.496
83.0, -463.79621320497245, -122.91368199372664, -132.85994592588395, 407.080630376935, 0.0, 0.04800000227987766, 0.9760000463575125, 0.0, 0.0, 0.0, 0.0, 0.0, 1.756485838512104E9, 0.0, 2025-08-29 13:43:58.512
83.0, -288.2789683844894, 97.83017299091443, -342.73939153924584, 216.8431393308565, 0.0, 0.04800000227987766, 0.9760000463575125, 0.0, 0.0, 0.0, 0.0, 0.0, 1.756485838512104E9, 0.0, 2025-08-29 13:43:58.512
84.0, -107.40805677743629, 36.75012691458687, -427.0255168406293, 119.0933741889894, 0.0, 0.04800000227987766, 0.9760000463575125, 0.0, 0.0, 0.0, 0.0, 0.0, 1.7564858385129707E9, 0.0, 2025-08-29 13:43:58.512
84.0, -118.52303944574669, -165.11845299368724, -656.1598373758607, -117.87603675341234, 0.0, 0.04800000227987766, 0.9760000463575125, 0.0, 0.0, 0.0, 0.0, 0.0, 1.7564858385129707E9, 0.0, 2025-08-29 13:43:58.512
85.0, 39.16610228596255, 25.029280453454703, -720.1383059178479, -187.288579931017, 0.0, 0.04800000227987766, 0.9760000463575125, 0.0, 0.0, 0.0, 0.0, 0.0, 1.7564858385264554E9, 0.0, 2025-08-29 13:43:58.526
