Sample Index, EXG Channel 0, EXG Channel 1, EXG Channel 2, EXG Channel 3, Accel Channel 0, Accel Channel 1, Accel Channel 2, Other, Other, Other, Other, Other, Timestamp, Marker Channel, Timestamp (Formatted)
0.0, 508.0242700809613, 396.49110365239903, 275.1163904904388, 251.9888491644524, 0.0, 0.0, 0.0, 0.0, 0.0, 0.0, 0.0, 0.0, 1.7564893132185977E9, 0.0, 2025-08-29 14:41:53.218
1.0, 425.9895645529032, 347.64053043117747, 289.81045741634443, 294.1300418651663, 0.0, 0.03200000151991844, 0.0, 0.0, 0.0, 0.0, 0.0, 0.0, 1.756489313232061E9, 0.0, 2025-08-29 14:41:53.232
1.0, 573.9250472001731, 400.5376754044555, 273.76254670647904, 229.52701003057882, 0.0, 0.03200000151991844, 0.0, 0.0, 0.0, 0.0, 0.0, 0.0, 1.756489313232061E9, 0.0, 2025-08-29 14:41:53.232
2.0, 528.4553435388952, 382.2458247211762, 233.98871067771688, 191.09579808590934, 0.03200000151991844, 0.03200000151991844, 0.0, 0.0, 0.0, 0.0, 0.0, 0.0, 1.7564893132488675E9, 0.0, 2025-08-29 14:41:53.248
2.0, 442.3591066589579, 367.70135379349813, 325.7583757904358, 314.8378679198213, 0.03200000151991844, 0.03200000151991844, 0.0, 0.0, 0.0, 0.0, 0.0, 0.0, 1.7564893132488675E9, 0.0, 2025-08-29 14:41:53.248
3.0, 537.1580907357857, 397.37745994189754, 299.14150780579075, 275.2659864886664, 0.03200000151991844, 0.03200000151991844, 0.0, 0.0, 0.0, 0.0, 0.0, 0.0, 1.7564893132496188E9, 0.0, 2025-08-29 14:41:53.249
3.0, 597.1498259250075, 417.12413170794025, 246.9175448245369, 200.5203459742479, 0.03200000151991844, 0.03200000151991844, 0.0, 0.0, 0.0, 0.0, 0.0, 0.0, 1.7564893132496188E9, 0.0, 2025-08-29 14:41:53.249
4.0, 476.2575598573312, 383.21819870965555, 310.85487446701154, 289.0175986257382, 0.03200000151991844, 0.03200000151991844, 0.0, 0.0, 0.0, 0.0, 0.0, 0.0, 1.7564893132618935E9, 0.0, 2025-08-29 14:41:53.261
4.0, 496.0565902227536, 384.4710651948117, 326.59985328046605, 309.40005338424817, 0.03200000151991844, 0.03200000151991844, 0.0, 0.0, 0.0, 0.0, 0.0, 0.0, 1.7564893132618935E9, 0.0, 2025-08-29 14:41:53.261
5.0, 600.1118266899139, 418.8931043869816, 273.90466290479526, 220.77564413426444, 0.03200000151991844, 0.03200000151991844, 0.0, 0.0, 0.0, 0.0, 0.0, 0.0, 1.7564893132776191E9, 0.0, 2025-08-29 14:41:53.277
5.0, 487.28652482666075, 367.80233109230176, 255.04434742825106, 215.76791809359565, 0.03200000151991844, 0.03200000151991844, 0.0, 0.0, 0.0, 0.0, 0.0, 0.0, 1.7564893132776191E9, 0.0, 2025-08-29 14:41:53.277
6.0, 449.56215397361666, 370.3866019616835, 330.7361826314591, 320.63471285114065, 0.03200000151991844, 0.03200000151991844, 0.0, 0.0, 0.0, 0.0, 0.0, 0.0, 1.7564893132783508E9, 0.0, 2025-08-29 14:41:53.278
6.0, 582.6277943970636, 414.6258785375394, 283.83783718710765, 255.76240821974352, 0.03200000151991844, 0.03200000151991844, 0.0, 0.0, 0.0, 0.0, 0.0, 0.0, 1.7564893132783508E9, 0.0, 2025-08-29 14:41:53.278
7.0, 556.8673635022715, 414.0349743445404, 269.8880103523843, 226.9763982607983, 0.03200000151991844, 0.03200000151991844, 0.0, 0.0, 0.0, 0.0, 0.0, 0.0, 1.7564893132918983E9, 0.0, 2025-08-29 14:41:53.291
7.0, 417.35787545517087, 348.94575551571324, 292.50692528439686, 282.5961904018186, 0.03200000151991844, 0.03200000151991844, 0.0, 0.0, 0.0, 0.0, 0.0, 0.0, 1.7564893132918983E9, 0.0, 2025-08-29 14:41:53.291
8.0, 553.254620145075, 411.85835257032886, 328.33890675986186, 296.51609803689644, 0.03200000151991844, 0.03200000151991844, 0.0, 0.0, 0.0, 0.0, 0.0, 0.0, 1.756489313307618E9, 0.0, 2025-08-29 14:41:53.307
8.0, 588.5667555266991, 419.82433947594836, 252.8452862543054, 199.06178499152884, 0.03200000151991844, 0.03200000151991844, 0.0, 0.0, 0.0, 0.0, 0.0, 0.0, 1.756489313307618E9, 0.0, 2025-08-29 14:41:53.307
9.0, 442.55732135660946, 363.0526581485756, 282.2222004062496, 258.1335047916509, 0.03200000151991844, 0.03200000151991844, 0.0, 0.0, 0.0, 0.0, 0.0, 0.0, 1.7564893133083465E9, 0.0, 2025-08-29 14:41:53.308
9.0, 480.20689421053976, 376.47141918959096, 314.18338542757556, 300.465432390105, 0.03200000151991844, 0.03200000151991844, 0.0, 0.0, 0.0, 0.0, 0.0, 0.0, 1.7564893133083465E9, 0.0, 2025-08-29 14:41:53.308
10.0, 594.0120498621836, 410.8336199824698, 277.39024966349825, 224.54920318955556, 0.03200000151991844, 0.03200000151991844, 0.49600002355873585, 0.0, 0.0, 0.0, 0.0, 0.0, 1.7564893133382683E9, 0.0, 2025-08-29 14:41:53.338
10.0, 500.465932270512, 389.89392013056204, 282.7906651995145, 242.2052708803676, 0.03200000151991844, 0.03200000151991844, 0.49600002355873585, 0.0, 0.0, 0.0, 0.0, 0.0, 1.7564893133382683E9, 0.0, 2025-08-29 14:41:53.338
11.0, 440.93420477584004, 367.1179294004105, 329.6142126447521, 317.1341664926149, 0.03200000151991844, 0.04800000227987766, 0.49600002355873585, 0.0, 0.0, 0.0, 0.0, 0.0, 1.7564893133389957E9, 0.0, 2025-08-29 14:41:53.338
11.0, 562.1406224397942, 401.64094589138404, 273.1903420132585, 226.4640319668688, 0.03200000151991844, 0.04800000227987766, 0.49600002355873585, 0.0, 0.0, 0.0, 0.0, 0.0, 1.7564893133389957E9, 0.0, 2025-08-29 14:41:53.338
12.0, 536.6457244418561, 390.95605171797797, 241.6517656869255, 193.53421285701916, 0.01600000075995922, 0.04800000227987766, 0.49600002355873585, 0.0, 0.0, 0.0, 0.0, 0.0, 1.756489313339753E9, 0.0, 2025-08-29 14:41:53.339
12.0, 435.2009381437674, 371.47117294883355, 312.84824114339426, 312.10400105221197, 0.01600000075995922, 0.04800000227987766, 0.49600002355873585, 0.0, 0.0, 0.0, 0.0, 0.0, 1.756489313339753E9, 0.0, 2025-08-29 14:41:53.339
13.0, 561.3365439493209, 419.01652108551934, 339.04250043304637, 315.0248629176058, 0.01600000075995922, 0.04800000227987766, 0.49600002355873585, 0.0, 0.0, 0.0, 0.0, 0.0, 1.7564893133519735E9, 0.0, 2025-08-29 14:41:53.351
13.0, 582.9344661934301, 413.2159362542443, 249.883285489399, 192.46460146969184, 0.01600000075995922, 0.04800000227987766, 0.49600002355873585, 0.0, 0.0, 0.0, 0.0, 0.0, 1.7564893133519735E9, 0.0, 2025-08-29 14:41:53.351
14.0, 430.88883349485695, 349.9592684037052, 264.05376642150804, 239.8341743084602, 0.01600000075995922, 0.04800000227987766, 0.49600002355873585, 0.0, 0.0, 0.0, 0.0, 0.0, 1.7564893133675988E9, 0.0, 2025-08-29 14:41:53.367
14.0, 467.09480496589094, 366.42604790860787, 309.6057478818111, 300.1213615941815, 0.01600000075995922, 0.04800000227987766, 0.49600002355873585, 0.0, 0.0, 0.0, 0.0, 0.0, 1.7564893133675988E9, 0.0, 2025-08-29 14:41:53.367
15.0, 592.0261629857123, 415.3925580284558, 267.19902228424326, 210.3413232578896, 0.01600000075995922, 0.04800000227987766, 0.49600002355873585, 0.0, 0.0, 0.0, 0.0, 0.0, 1.7564893133683429E9, 0.0, 2025-08-29 14:41:53.368
15.0, 515.7247240897268, 410.0669404915534, 296.7180526345037, 263.34692532988265, 0.01600000075995922, 0.04800000227987766, 0.49600002355873585, 0.0, 0.0, 0.0, 0.0, 0.0, 1.7564893133683429E9, 0.0, 2025-08-29 14:41:53.368
16.0, 445.56794082093984, 365.8875023149885, 341.2527813068591, 328.9485104526393, 0.01600000075995922, 0.04800000227987766, 0.49600002355873585, 0.0, 0.0, 0.0, 0.0, 0.0, 1.7564893133819716E9, 0.0, 2025-08-29 14:41:53.381
16.0, 574.9049009885639, 405.9530505402945, 290.4574601086788, 247.0222620232962, 0.01600000075995922, 0.04800000227987766, 0.49600002355873585, 0.0, 0.0, 0.0, 0.0, 0.0, 1.7564893133819716E9, 0.0, 2025-08-29 14:41:53.381
17.0, 539.3795913094655, 397.07826794544235, 252.41893765935674, 204.93716782191768, 0.01600000075995922, 0.04800000227987766, 0.49600002355873585, 0.0, 0.0, 0.0, 0.0, 0.0, 1.7564893133975966E9, 0.0, 2025-08-29 14:41:53.397
17.0, 432.96821787022054, 352.1770290774293, 318.1289798808284, 326.8018078780733, 0.01600000075995922, 0.04800000227987766, 0.49600002355873585, 0.0, 0.0, 0.0, 0.0, 0.0, 1.7564893133975966E9, 0.0, 2025-08-29 14:41:53.397
18.0, 525.0482946792617, 392.9381986944936, 312.37701374897733, 300.24851819267496, 0.01600000075995922, 0.04800000227987766, 0.49600002355873585, 0.0, 0.0, 0.0, 0.0, 0.0, 1.756489313398327E9, 0.0, 2025-08-29 14:41:53.398
18.0, 608.8407531864941, 437.738460263703, 291.9758594906889, 243.62269296357408, 0.01600000075995922, 0.04800000227987766, 0.49600002355873585, 0.0, 0.0, 0.0, 0.0, 0.0, 1.756489313398327E9, 0.0, 2025-08-29 14:41:53.398
19.0, 465.7035621823743, 379.0070713595487, 312.6762057454325, 303.1581603582017, 0.01600000075995922, 0.04800000227987766, 0.49600002355873585, 0.0, 0.0, 0.0, 0.0, 0.0, 1.75648931341197E9, 0.0, 2025-08-29 14:41:53.411
19.0, 486.6021231347695, 379.10430875839666, 340.74789481284097, 324.23249660851434, 0.01600000075995922, 0.04800000227987766, 0.49600002355873585, 0.0, 0.0, 0.0, 0.0, 0.0, 1.75648931341197E9, 0.0, 2025-08-29 14:41:53.411
20.0, 603.6422922480851, 424.0279870261438, 286.17153475945815, 229.2390377339907, 0.01600000075995922, 0.04800000227987766, 0.7360000349581242, 0.0, 0.0, 0.0, 0.0, 0.0, 1.7564893134275975E9, 0.0, 2025-08-29 14:41:53.427
20.0, 508.1738660791889, 390.3127889255993, 287.31968404585496, 256.6300650094636, 0.01600000075995922, 0.04800000227987766, 0.7360000349581242, 0.0, 0.0, 0.0, 0.0, 0.0, 1.7564893134275975E9, 0.0, 2025-08-29 14:41:53.427
21.0, 450.5868865614757, 375.88799479650334, 345.0338201620616, 341.27522070659325, 0.01600000075995922, 0.11200000531971455, 0.7360000349581242, 0.0, 0.0, 0.0, 0.0, 0.0, 1.7564893134283333E9, 0.0, 2025-08-29 14:41:53.428
21.0, 591.2744430946186, 428.23537447629496, 321.63700603926554, 289.35792952170596, 0.01600000075995922, 0.11200000531971455, 0.7360000349581242, 0.0, 0.0, 0.0, 0.0, 0.0, 1.7564893134283333E9, 0.0, 2025-08-29 14:41:53.428
22.0, 564.6388756101951, 424.20002242410555, 290.6781142060645, 239.78555560903624, 0.0, 0.11200000531971455, 0.7360000349581242, 0.0, 0.0, 0.0, 0.0, 0.0, 1.7564893134419658E9, 0.0, 2025-08-29 14:41:53.441
22.0, 425.1667865626514, 356.5302726258524, 320.2906420552172, 315.9112192071043, 0.0, 0.11200000531971455, 0.7360000349581242, 0.0, 0.0, 0.0, 0.0, 0.0, 1.7564893134419658E9, 0.0, 2025-08-29 14:41:53.441
23.0, 538.1416844241321, 397.48591704061255, 325.7658555903472, 301.50886447774246, 0.0, 0.11200000531971455, 0.7360000349581242, 0.0, 0.0, 0.0, 0.0, 0.0, 1.7564893134576063E9, 0.0, 2025-08-29 14:41:53.457
23.0, 605.0297951316461, 430.1202840539627, 283.83783718710765, 238.60374722303823, 0.0, 0.11200000531971455, 0.7360000349581242, 0.0, 0.0, 0.0, 0.0, 0.0, 1.7564893134576063E9, 0.0, 2025-08-29 14:41:53.457
24.0, 474.3015921805054, 387.0590759641491, 320.8703265483491, 300.88056128518656, 0.0, 0.11200000531971455, 0.7360000349581242, 0.0, 0.0, 0.0, 0.0, 0.0, 1.7564893134583344E9, 0.0, 2025-08-29 14:41:53.458
24.0, 504.4564055232331, 404.427171358373, 371.10466275317594, 349.4506420097314, 0.0, 0.11200000531971455, 0.7360000349581242, 0.0, 0.0, 0.0, 0.0, 0.0, 1.7564893134583344E9, 0.0, 2025-08-29 14:41:53.458
25.0, 592.138359984383, 423.30244643474, 284.4511807798408, 220.09498234232888, 0.0, 0.11200000531971455, 0.7360000349581242, 0.0, 0.0, 0.0, 0.0, 0.0, 1.7564893134719627E9, 0.0, 2025-08-29 14:41:53.471
25.0, 500.0582831753418, 394.8455476718955, 294.46663286117837, 250.96411657659337, 0.0, 0.11200000531971455, 0.7360000349581242, 0.0, 0.0, 0.0, 0.0, 0.0, 1.7564893134719627E9, 0.0, 2025-08-29 14:41:53.471
26.0, 449.93240406922996, 366.714020205196, 342.954435786698, 333.01378170447424, 0.0, 0.11200000531971455, 0.7360000349581242, 0.0, 0.0, 0.0, 0.0, 0.0, 1.756489313503972E9, 0.0, 2025-08-29 14:41:53.503
26.0, 589.8046624120325, 426.20086890039966, 315.9785374063067, 272.1917887250893, 0.0, 0.11200000531971455, 0.7360000349581242, 0.0, 0.0, 0.0, 0.0, 0.0, 1.756489313503972E9, 0.0, 2025-08-29 14:41:53.503
27.0, 557.3610302964225, 404.3598531591706, 278.39628275157884, 233.34170798538253, 0.0, 0.11200000531971455, 0.7360000349581242, 0.0, 0.0, 0.0, 0.0, 0.0, 1.7564893135047667E9, 0.0, 2025-08-29 14:41:53.504
27.0, 440.85192697681487, 360.09439728362486, 340.2617078186013, 325.30210799584165, 0.0, 0.11200000531971455, 0.7360000349581242, 0.0, 0.0, 0.0, 0.0, 0.0, 1.7564893135047667E9, 0.0, 2025-08-29 14:41:53.504
28.0, 578.9065939411521, 435.76753298705444, 375.3457093029283, 342.954435786698, 0.0, 0.11200000531971455, 0.7360000349581242, 0.0, 0.0, 0.0, 0.0, 0.0, 1.756489313505469E9, 0.0, 2025-08-29 14:41:53.505
28.0, 580.1781599260867, 406.730949731078, 270.57989184418693, 211.44085384486243, 0.0, 0.11200000531971455, 0.7360000349581242, 0.0, 0.0, 0.0, 0.0, 0.0, 1.756489313505469E9, 0.0, 2025-08-29 14:41:53.505
29.0, 465.97657487913966, 379.02951075928286, 317.7250706856139, 302.73181176325306, 0.0, 0.11200000531971455, 0.7360000349581242, 0.0, 0.0, 0.0, 0.0, 0.0, 1.7564893135062184E9, 0.0, 2025-08-29 14:41:53.506
29.0, 501.6851396560669, 392.1303803040646, 367.3834622972645, 353.8113653580658, 0.0, 0.11200000531971455, 0.7360000349581242, 0.0, 0.0, 0.0, 0.0, 0.0, 1.7564893135062184E9, 0.0, 2025-08-29 14:41:53.506
30.0, 610.9837158611044, 425.508987408597, 293.31848357478157, 242.9457710715942, 0.0, 0.11200000531971455, 0.8480000402778387, 0.0, 0.0, 0.0, 0.0, 0.0, 1.7564893135168903E9, 0.0, 2025-08-29 14:41:53.516
30.0, 493.8911881484091, 370.9999455544166, 279.27889914112166, 241.00476299459115, 0.0, 0.11200000531971455, 0.8480000402778387, 0.0, 0.0, 0.0, 0.0, 0.0, 1.7564893135168903E9, 0.0, 2025-08-29 14:41:53.516
31.0, 460.7033159416169, 375.06147690629587, 360.973273773212, 349.87325070472434, 0.0, 0.19200000911951065, 0.8480000402778387, 0.0, 0.0, 0.0, 0.0, 0.0, 1.7564893135318983E9, 0.0, 2025-08-29 14:41:53.531
31.0, 628.6061244523153, 455.3421693551354, 363.4864865434356, 320.4626774531789, 0.0, 0.19200000911951065, 0.8480000402778387, 0.0, 0.0, 0.0, 0.0, 0.0, 1.7564893135318983E9, 0.0, 2025-08-29 14:41:53.531
32.0, 542.7155820699409, 391.99948380561545, 273.9981604036875, 242.12299308134243, -0.06400000303983688, 0.19200000911951065, 0.8480000402778387, 0.0, 0.0, 0.0, 0.0, 0.0, 1.7564893135482655E9, 0.0, 2025-08-29 14:41:53.548
32.0, 425.03962996415794, 349.1477101133205, 330.23877593735233, 318.5067097763531, -0.06400000303983688, 0.19200000911951065, 0.8480000402778387, 0.0, 0.0, 0.0, 0.0, 0.0, 1.7564893135482655E9, 0.0, 2025-08-29 14:41:53.548
33.0, 526.4357975628227, 394.4304187768139, 338.8031468358822, 310.03209647675976, -0.06400000303983688, 0.19200000911951065, 0.8480000402778387, 0.0, 0.0, 0.0, 0.0, 0.0, 1.756489313548994E9, 0.0, 2025-08-29 14:41:53.548
33.0, 630.4872941300273, 461.498044682201, 329.8460864420049, 267.04568638605997, -0.06400000303983688, 0.19200000911951065, 0.8480000402778387, 0.0, 0.0, 0.0, 0.0, 0.0, 1.756489313548994E9, 0.0, 2025-08-29 14:41:53.548
34.0, 436.48746372852474, 344.1175446729176, 298.62540161190554, 273.7737664063461, -0.06400000303983688, 0.19200000911951065, 0.8480000402778387, 0.0, 0.0, 0.0, 0.0, 0.0, 1.756489313561907E9, 0.0, 2025-08-29 14:41:53.561
34.0, 468.661823047325, 347.8237855290063, 327.51986866956577, 318.99663667054847, -0.06400000303983688, 0.19200000911951065, 0.8480000402778387, 0.0, 0.0, 0.0, 0.0, 0.0, 1.756489313561907E9, 0.0, 2025-08-29 14:41:53.561
35.0, 596.75713642966, 412.00794856855646, 286.9008152508177, 242.78495537349954, -0.06400000303983688, 0.19200000911951065, 0.8480000402778387, 0.0, 0.0, 0.0, 0.0, 0.0, 1.7564893135776167E9, 0.0, 2025-08-29 14:41:53.577
35.0, 509.9428387582302, 389.51245033508167, 305.88454742589965, 272.69293531915173, -0.06400000303983688, 0.19200000911951065, 0.8480000402778387, 0.0, 0.0, 0.0, 0.0, 0.0, 1.7564893135776167E9, 0.0, 2025-08-29 14:41:53.577
36.0, 450.7738815592602, 365.06846422469243, 358.49746000254527, 350.09016490215436, -0.06400000303983688, 0.19200000911951065, 0.8480000402778387, 0.0, 0.0, 0.0, 0.0, 0.0, 1.75648931357835E9, 0.0, 2025-08-29 14:41:53.578
36.0, 589.8495412115008, 421.2604610589333, 321.89505913620815, 282.1474024071358, -0.06400000303983688, 0.19200000911951065, 0.8480000402778387, 0.0, 0.0, 0.0, 0.0, 0.0, 1.75648931357835E9, 0.0, 2025-08-29 14:41:53.578
37.0, 577.4854319579899, 428.79635946964845, 293.0753900776617, 256.83201960707083, -0.06400000303983688, 0.19200000911951065, 0.8480000402778387, 0.0, 0.0, 0.0, 0.0, 0.0, 1.756489313608271E9, 0.0, 2025-08-29 14:41:53.608
37.0, 437.26910281926394, 356.79206562275067, 352.8427312695421, 347.2889798353426, -0.06400000303983688, 0.19200000911951065, 0.8480000402778387, 0.0, 0.0, 0.0, 0.0, 0.0, 1.756489313608271E9, 0.0, 2025-08-29 14:41:53.608
38.0, 523.2232235008851, 384.88993398984894, 324.5803073043935, 296.0934893419035, -0.06400000303983688, 0.19200000911951065, 0.8480000402778387, 0.0, 0.0, 0.0, 0.0, 0.0, 1.7564893136090508E9, 0.0, 2025-08-29 14:41:53.609
38.0, 571.972819423303, 404.7749820542522, 262.20251594344154, 213.4865791206248, -0.06400000303983688, 0.19200000911951065, 0.8480000402778387, 0.0, 0.0, 0.0, 0.0, 0.0, 1.7564893136090508E9, 0.0, 2025-08-29 14:41:53.609
39.0, 475.20664796978235, 385.15172698674724, 332.96890290500596, 313.4204458366148, -0.06400000303983688, 0.19200000911951065, 0.8480000402778387, 0.0, 0.0, 0.0, 0.0, 0.0, 1.7564893136097777E9, 0.0, 2025-08-29 14:41:53.609
39.0, 474.1781754819676, 368.2585988868959, 341.75766780087724, 339.7456016247161, -0.06400000303983688, 0.19200000911951065, 0.8480000402778387, 0.0, 0.0, 0.0, 0.0, 0.0, 1.7564893136097777E9, 0.0, 2025-08-29 14:41:53.609
40.0, 614.0579136246815, 433.38895661523566, 302.7243319633417, 259.15449747955427, -0.06400000303983688, 0.19200000911951065, 0.7040000334382057, 0.0, 0.0, 0.0, 0.0, 0.0, 1.7564893136219676E9, 0.0, 2025-08-29 14:41:53.621
40.0, 512.1755590317771, 397.03338914597407, 300.2260787929408, 268.97921466315165, -0.06400000303983688, 0.19200000911951065, 0.7040000334382057, 0.0, 0.0, 0.0, 0.0, 0.0, 1.7564893136219676E9, 0.0, 2025-08-29 14:41:53.621
41.0, 464.0654860017821, 383.76796400314197, 371.381415349897, 363.8604765390046, -0.06400000303983688, 0.20800000987946987, 0.7040000334382057, 0.0, 0.0, 0.0, 0.0, 0.0, 1.7564893136375952E9, 0.0, 2025-08-29 14:41:53.637
41.0, 570.3048240430653, 396.73793704947457, 308.43889909563586, 281.17502841865644, -0.06400000303983688, 0.20800000987946987, 0.7040000334382057, 0.0, 0.0, 0.0, 0.0, 0.0, 1.7564893136375952E9, 0.0, 2025-08-29 14:41:53.637
42.0, 559.7396066682413, 411.2225695778616, 285.7115270649083, 247.48600961780176, -0.03200000151991844, 0.20800000987946987, 0.7040000334382057, 0.0, 0.0, 0.0, 0.0, 0.0, 1.7564893136383324E9, 0.0, 2025-08-29 14:41:53.638
42.0, 440.6237930795178, 354.69398174760863, 343.71363547770306, 333.70940309623256, -0.03200000151991844, 0.20800000987946987, 0.7040000334382057, 0.0, 0.0, 0.0, 0.0, 0.0, 1.7564893136383324E9, 0.0, 2025-08-29 14:41:53.638
43.0, 552.0541122592986, 402.2842086837627, 349.97796790348366, 326.7344896788709, -0.03200000151991844, 0.20800000987946987, 0.7040000334382057, 0.0, 0.0, 0.0, 0.0, 0.0, 1.7564893136683197E9, 0.0, 2025-08-29 14:41:53.668
43.0, 602.1874711653218, 423.46326213283464, 291.7028467939235, 236.08679455285892, -0.03200000151991844, 0.20800000987946987, 0.7040000334382057, 0.0, 0.0, 0.0, 0.0, 0.0, 1.7564893136683197E9, 0.0, 2025-08-29 14:41:53.668
44.0, 454.52874111477286, 357.1436162185855, 311.2438240624033, 292.46578638488427, -0.03200000151991844, 0.20800000987946987, 0.7040000334382057, 0.0, 0.0, 0.0, 0.0, 0.0, 1.7564893136690505E9, 0.0, 2025-08-29 14:41:53.669
44.0, 484.59005695860833, 371.2654784512706, 355.2661864408292, 344.90666356356815, -0.03200000151991844, 0.20800000987946987, 0.7040000334382057, 0.0, 0.0, 0.0, 0.0, 0.0, 1.7564893136690505E9, 0.0, 2025-08-29 14:41:53.669
45.0, 606.4322576150298, 426.05875270208344, 300.8656016853638, 257.2134894025512, -0.03200000151991844, 0.20800000987946987, 0.7040000334382057, 0.0, 0.0, 0.0, 0.0, 0.0, 1.7564893136697931E9, 0.0, 2025-08-29 14:41:53.669
45.0, 516.8018152769655, 394.71091127349064, 306.157560122665, 282.3343974049203, -0.03200000151991844, 0.20800000987946987, 0.7040000334382057, 0.0, 0.0, 0.0, 0.0, 0.0, 1.7564893136697931E9, 0.0, 2025-08-29 14:41:53.669
46.0, 450.1792374663055, 365.640668917913, 357.9626543088816, 351.28319298801944, -0.03200000151991844, 0.20800000987946987, 0.7040000334382057, 0.0, 0.0, 0.0, 0.0, 0.0, 1.7564893136818936E9, 0.0, 2025-08-29 14:41:53.681
46.0, 587.6803992372006, 416.6529043135233, 323.6228929157369, 285.24777947040275, -0.03200000151991844, 0.20800000987946987, 0.7040000334382057, 0.0, 0.0, 0.0, 0.0, 0.0, 1.7564893136818936E9, 0.0, 2025-08-29 14:41:53.681
47.0, 547.5699722124264, 398.9930967227556, 277.3752900636755, 246.023708735127, -0.03200000151991844, 0.20800000987946987, 0.7040000334382057, 0.0, 0.0, 0.0, 0.0, 0.0, 1.7564893136975667E9, 0.0, 2025-08-29 14:41:53.697
47.0, 427.1676330389455, 350.79326609382406, 352.3041856759228, 339.8166597238742, -0.03200000151991844, 0.20800000987946987, 0.7040000334382057, 0.0, 0.0, 0.0, 0.0, 0.0, 1.7564893136975667E9, 0.0, 2025-08-29 14:41:53.697
48.0, 525.9608302684501, 385.7912498791702, 351.24205408850685, 322.7963750255294, -0.03200000151991844, 0.20800000987946987, 0.7040000334382057, 0.0, 0.0, 0.0, 0.0, 0.0, 1.7564893136982925E9, 0.0, 2025-08-29 14:41:53.698
48.0, 581.2889102129266, 404.2513960604556, 284.3015847816132, 244.44921085378155, -0.03200000151991844, 0.20800000987946987, 0.7040000334382057, 0.0, 0.0, 0.0, 0.0, 0.0, 1.7564893136982925E9, 0.0, 2025-08-29 14:41:53.698
49.0, 436.5473021278158, 342.72630188940093, 306.8045628149994, 288.09384333668277, -0.03200000151991844, 0.20800000987946987, 0.7040000334382057, 0.0, 0.0, 0.0, 0.0, 0.0, 1.756489313728292E9, 0.0, 2025-08-29 14:41:53.728
49.0, 467.6744894590229, 362.0092260609381, 351.24205408850685, 341.2565212068148, -0.03200000151991844, 0.20800000987946987, 0.7040000334382057, 0.0, 0.0, 0.0, 0.0, 0.0, 1.756489313728292E9, 0.0, 2025-08-29 14:41:53.728
50.0, 606.8810456097126, 427.98480117926374, 306.84196181455627, 275.61005728458986, -0.03200000151991844, 0.20800000987946987, 0.8320000395178795, 0.0, 0.0, 0.0, 0.0, 0.0, 1.756489313729031E9, 0.0, 2025-08-29 14:41:53.729
50.0, 515.4891103925183, 397.26900284318253, 314.56485522305593, 295.80925694527104, -0.03200000151991844, 0.20800000987946987, 0.8320000395178795, 0.0, 0.0, 0.0, 0.0, 0.0, 1.756489313729031E9, 0.0, 2025-08-29 14:41:53.729
51.0, 452.2623617416248, 356.9678409206681, 364.17836803523824, 372.5968828354962, -0.03200000151991844, 0.2240000106394291, 0.8320000395178795, 0.0, 0.0, 0.0, 0.0, 0.0, 1.756489313729774E9, 0.0, 2025-08-29 14:41:53.729
51.0, 586.988517745398, 409.07586700329557, 332.8080872069113, 289.7468791170977, -0.03200000151991844, 0.2240000106394291, 0.8320000395178795, 0.0, 0.0, 0.0, 0.0, 0.0, 1.756489313729774E9, 0.0, 2025-08-29 14:41:53.729
52.0, 560.7194604566321, 394.9390451707877, 290.0834701131098, 253.72042284393683, -0.01600000075995922, 0.2240000106394291, 0.8320000395178795, 0.0, 0.0, 0.0, 0.0, 0.0, 1.7564893137419076E9, 0.0, 2025-08-29 14:41:53.741
52.0, 476.0069865603, 388.15112675121054, 375.3905881023966, 368.10526298871264, -0.01600000075995922, 0.2240000106394291, 0.8320000395178795, 0.0, 0.0, 0.0, 0.0, 0.0, 1.7564893137419076E9, 0.0, 2025-08-29 14:41:53.741
53.0, 524.3115343879908, 380.58530914084986, 335.71398947248235, 326.04260818706825, -0.01600000075995922, 0.2240000106394291, 0.8320000395178795, 0.0, 0.0, 0.0, 0.0, 0.0, 1.7564893137576172E9, 0.0, 2025-08-29 14:41:53.757
53.0, 573.9437466999516, 394.17984547978267, 273.4035163107328, 232.52640979504213, -0.01600000075995922, 0.2240000106394291, 0.8320000395178795, 0.0, 0.0, 0.0, 0.0, 0.0, 1.7564893137576172E9, 0.0, 2025-08-29 14:41:53.757
54.0, 458.97922206204385, 362.9217616501264, 324.77852200204507, 307.0925351115875, -0.01600000075995922, 0.2240000106394291, 0.8320000395178795, 0.0, 0.0, 0.0, 0.0, 0.0, 1.7564893137583525E9, 0.0, 2025-08-29 14:41:53.758
54.0, 479.43647481966764, 367.4956592959352, 357.0426389197819, 342.8758978876285, -0.01600000075995922, 0.2240000106394291, 0.8320000395178795, 0.0, 0.0, 0.0, 0.0, 0.0, 1.7564893137583525E9, 0.0, 2025-08-29 14:41:53.758
55.0, 609.4802760789171, 425.63988390704617, 308.6034546936862, 268.53790646838024, -0.01600000075995922, 0.2240000106394291, 0.8320000395178795, 0.0, 0.0, 0.0, 0.0, 0.0, 1.756489313788278E9, 0.0, 2025-08-29 14:41:53.788
55.0, 515.5152896922082, 387.88559385435656, 302.503677865956, 284.0809306842275, -0.01600000075995922, 0.2240000106394291, 0.8320000395178795, 0.0, 0.0, 0.0, 0.0, 0.0, 1.756489313788278E9, 0.0, 2025-08-29 14:41:53.788
56.0, 424.48612477071583, 337.08279285626486, 338.1374446437694, 343.8781910757534, -0.01600000075995922, 0.2240000106394291, 0.8320000395178795, 0.0, 0.0, 0.0, 0.0, 0.0, 1.7564893137890108E9, 0.0, 2025-08-29 14:41:53.789
56.0, 564.5304185114801, 397.2129043438472, 309.7179448804818, 281.43682141555473, -0.01600000075995922, 0.2240000106394291, 0.8320000395178795, 0.0, 0.0, 0.0, 0.0, 0.0, 1.7564893137890108E9, 0.0, 2025-08-29 14:41:53.789
57.0, 535.1796836592257, 391.2440240145661, 264.7830469128676, 229.11936093540862, -0.01600000075995922, 0.2240000106394291, 0.8320000395178795, 0.0, 0.0, 0.0, 0.0, 0.0, 1.7564893137897656E9, 0.0, 2025-08-29 14:41:53.789
57.0, 435.3243548423052, 355.3634238396771, 337.6549975494854, 346.7803534413688, -0.01600000075995922, 0.2240000106394291, 0.8320000395178795, 0.0, 0.0, 0.0, 0.0, 0.0, 1.7564893137897656E9, 0.0, 2025-08-29 14:41:53.789
58.0, 532.7861476875842, 399.33716751867905, 356.7023080238141, 341.67912990180776, -0.01600000075995922, 0.2240000106394291, 0.8320000395178795, 0.0, 0.0, 0.0, 0.0, 0.0, 1.7564893138019707E9, 0.0, 2025-08-29 14:41:53.801
58.0, 583.8507416825742, 419.2633544825949, 279.91842203354463, 236.6477795462124, -0.01600000075995922, 0.2240000106394291, 0.8320000395178795, 0.0, 0.0, 0.0, 0.0, 0.0, 1.7564893138019707E9, 0.0, 2025-08-29 14:41:53.801
59.0, 462.28155372291803, 375.28587090363726, 331.48790252255276, 314.0263096294366, -0.01600000075995922, 0.2240000106394291, 0.8320000395178795, 0.0, 0.0, 0.0, 0.0, 0.0, 1.756489313833963E9, 0.0, 2025-08-29 14:41:53.833
59.0, 458.02180767338723, 355.8533507338725, 338.16362394345924, 336.888318058569, -0.01600000075995922, 0.2240000106394291, 0.8320000395178795, 0.0, 0.0, 0.0, 0.0, 0.0, 1.756489313833963E9, 0.0, 2025-08-29 14:41:53.833
60.0, 585.2008455665782, 408.39520521136, 284.31654438143596, 254.27392803737894, -0.01600000075995922, 0.2240000106394291, 0.8960000425577164, 0.0, 0.0, 0.0, 0.0, 0.0, 1.756489313834714E9, 0.0, 2025-08-29 14:41:53.834
60.0, 491.7893643733114, 376.99500518338755, 291.4522734968923, 265.6619234024547, -0.01600000075995922, 0.2240000106394291, 0.8960000425577164, 0.0, 0.0, 0.0, 0.0, 0.0, 1.756489313834714E9, 0.0, 2025-08-29 14:41:53.834
61.0, 418.3826080430299, 340.7291953130625, 336.1365981674753, 345.0001610624604, -0.01600000075995922, 0.2400000113993883, 0.8960000425577164, 0.0, 0.0, 0.0, 0.0, 0.0, 1.7564893138354428E9, 0.0, 2025-08-29 14:41:53.835
61.0, 584.9652318693697, 424.7460478176363, 328.2902880604379, 321.78286213753745, -0.01600000075995922, 0.2400000113993883, 0.8960000425577164, 0.0, 0.0, 0.0, 0.0, 0.0, 1.7564893138354428E9, 0.0, 2025-08-29 14:41:53.835
62.0, 529.652111524716, 375.9852321953513, 266.2266482957639, 240.74670989764854, 0.0, 0.2400000113993883, 0.8960000425577164, 0.0, 0.0, 0.0, 0.0, 0.0, 1.7564893138361936E9, 0.0, 2025-08-29 14:41:53.836
62.0, 427.7921963315457, 356.82946462230757, 343.810872876551, 358.31420490471646, 0.0, 0.2400000113993883, 0.8960000425577164, 0.0, 0.0, 0.0, 0.0, 0.0, 1.7564893138361936E9, 0.0, 2025-08-29 14:41:53.836
63.0, 519.2589295478538, 378.0122579713352, 337.0379140567966, 320.7693492495455, 0.0, 0.2400000113993883, 0.8960000425577164, 0.0, 0.0, 0.0, 0.0, 0.0, 1.7564893138468995E9, 0.0, 2025-08-29 14:41:53.846
63.0, 569.8373365486041, 399.2100109201856, 267.2513808836229, 234.5048168716021, 0.0, 0.2400000113993883, 0.8960000425577164, 0.0, 0.0, 0.0, 0.0, 0.0, 1.7564893138468995E9, 0.0, 2025-08-29 14:41:53.846
64.0, 446.19250411354005, 356.8444242221303, 308.03125000046566, 294.1225620652549, 0.0, 0.2400000113993883, 0.8960000425577164, 0.0, 0.0, 0.0, 0.0, 0.0, 1.7564893138618958E9, 0.0, 2025-08-29 14:41:53.861
64.0, 476.20894115790725, 378.84999556140974, 355.86831033369526, 351.67962238332257, 0.0, 0.2400000113993883, 0.8960000425577164, 0.0, 0.0, 0.0, 0.0, 0.0, 1.7564893138618958E9, 0.0, 2025-08-29 14:41:53.861
65.0, 602.9130117567256, 426.87031099246815, 296.44130003778264, 238.77578262099996, 0.0, 0.2400000113993883, 0.8960000425577164, 0.0, 0.0, 0.0, 0.0, 0.0, 1.756489313877633E9, 0.0, 2025-08-29 14:41:53.877
65.0, 503.8767210301012, 387.1974522625096, 294.2684181635268, 273.7363674067892, 0.0, 0.2400000113993883, 0.8960000425577164, 0.0, 0.0, 0.0, 0.0, 0.0, 1.756489313877633E9, 0.0, 2025-08-29 14:41:53.877
66.0, 405.17702129948884, 335.6616308731027, 332.1386451148428, 337.11645195586607, 0.0, 0.2400000113993883, 0.8960000425577164, 0.0, 0.0, 0.0, 0.0, 0.0, 1.756489313878368E9, 0.0, 2025-08-29 14:41:53.878
66.0, 567.7055935738608, 402.25802938407287, 303.7490645512007, 270.4377756458707, 0.0, 0.2400000113993883, 0.8960000425577164, 0.0, 0.0, 0.0, 0.0, 0.0, 1.756489313878368E9, 0.0, 2025-08-29 14:41:53.878
67.0, 548.3815305028111, 395.6945049618371, 278.527179250028, 244.9840165474452, 0.0, 0.2400000113993883, 0.8960000425577164, 0.0, 0.0, 0.0, 0.0, 0.0, 1.7564893138919096E9, 0.0, 2025-08-29 14:41:53.891
67.0, 430.4363056002185, 359.17438189452514, 345.28065355913714, 345.05625956179574, 0.0, 0.2400000113993883, 0.8960000425577164, 0.0, 0.0, 0.0, 0.0, 0.0, 1.7564893138919096E9, 0.0, 2025-08-29 14:41:53.891
68.0, 511.52107653953135, 383.4500725069083, 323.5780141162686, 299.5267175012268, 0.0, 0.2400000113993883, 0.8960000425577164, 0.0, 0.0, 0.0, 0.0, 0.0, 1.7564893139076164E9, 0.0, 2025-08-29 14:41:53.907
68.0, 585.0662091681734, 416.71648261277005, 270.61355094378814, 226.03020357200876, 0.0, 0.2400000113993883, 0.8960000425577164, 0.0, 0.0, 0.0, 0.0, 0.0, 1.7564893139076164E9, 0.0, 2025-08-29 14:41:53.907
69.0, 439.9468711875379, 360.80123837525025, 299.825909497682, 293.21750627597794, 0.0, 0.2400000113993883, 0.8960000425577164, 0.0, 0.0, 0.0, 0.0, 0.0, 1.7564893139083447E9, 0.0, 2025-08-29 14:41:53.908
69.0, 468.6580831473693, 375.0465173064731, 342.1877562957816, 342.2962133944966, 0.0, 0.2400000113993883, 0.8960000425577164, 0.0, 0.0, 0.0, 0.0, 0.0, 1.7564893139083447E9, 0.0, 2025-08-29 14:41:53.908
70.0, 585.3167824652046, 407.48266962217167, 273.5867714085616, 237.4256787369959, 0.0, 0.2400000113993883, 0.944000044837594, 0.0, 0.0, 0.0, 0.0, 0.0, 1.7564893139218976E9, 0.0, 2025-08-29 14:41:53.921
70.0, 500.6454474683851, 389.9126196303405, 289.73191951727495, 258.3242396893911, 0.0, 0.2400000113993883, 0.944000044837594, 0.0, 0.0, 0.0, 0.0, 0.0, 1.7564893139218976E9, 0.0, 2025-08-29 14:41:53.921
71.0, 448.9562901807949, 371.5235315482132, 357.4577678148635, 348.5493261204101, 0.0, 0.144000006839633, 0.944000044837594, 0.0, 0.0, 0.0, 0.0, 0.0, 1.75648931393762E9, 0.0, 2025-08-29 14:41:53.937
71.0, 578.0950356507674, 408.9150513052009, 304.37362784380093, 273.02204651525244, 0.0, 0.144000006839633, 0.944000044837594, 0.0, 0.0, 0.0, 0.0, 0.0, 1.75648931393762E9, 0.0, 2025-08-29 14:41:53.937
72.0, 559.4553742716089, 403.5894337682985, 260.1044320682995, 227.61592115322128, 0.0, 0.144000006839633, 0.944000044837594, 0.0, 0.0, 0.0, 0.0, 0.0, 1.7564893139383516E9, 0.0, 2025-08-29 14:41:53.938
72.0, 447.3331736000255, 380.4618924423121, 346.4325427454896, 345.209595459979, 0.0, 0.144000006839633, 0.944000044837594, 0.0, 0.0, 0.0, 0.0, 0.0, 1.7564893139383516E9, 0.0, 2025-08-29 14:41:53.938
73.0, 523.2381831007078, 392.463231400121, 323.9894031113945, 299.8969675968401, 0.0, 0.144000006839633, 0.944000044837594, 0.0, 0.0, 0.0, 0.0, 0.0, 1.756489313951893E9, 0.0, 2025-08-29 14:41:53.951
73.0, 587.5981214381754, 410.9607765809633, 256.3607922126539, 214.8628623043187, 0.0, 0.144000006839633, 0.944000044837594, 0.0, 0.0, 0.0, 0.0, 0.0, 1.756489313951893E9, 0.0, 2025-08-29 14:41:53.951
74.0, 455.45623630378395, 375.7458785981871, 304.92713303724304, 291.1493416004814, 0.0, 0.144000006839633, 0.944000044837594, 0.0, 0.0, 0.0, 0.0, 0.0, 1.756489313967615E9, 0.0, 2025-08-29 14:41:53.967
74.0, 477.24863334558904, 376.0076715950854, 343.9529890748672, 338.38801794080064, 0.0, 0.144000006839633, 0.944000044837594, 0.0, 0.0, 0.0, 0.0, 0.0, 1.756489313967615E9, 0.0, 2025-08-29 14:41:53.967
75.0, 611.4661629553884, 426.32054569898173, 283.0113192969002, 237.5341358357109, 0.0, 0.144000006839633, 0.944000044837594, 0.0, 0.0, 0.0, 0.0, 0.0, 1.756489313968346E9, 0.0, 2025-08-29 14:41:53.968
75.0, 509.692265461199, 394.89790627127513, 282.65228890115395, 253.78400114318356, 0.0, 0.144000006839633, 0.944000044837594, 0.0, 0.0, 0.0, 0.0, 0.0, 1.756489313968346E9, 0.0, 2025-08-29 14:41:53.968
76.0, 451.0020154565573, 380.4544126424007, 362.2224003584124, 367.0431314012967, 0.0, 0.144000006839633, 0.944000044837594, 0.0, 0.0, 0.0, 0.0, 0.0, 1.7564893139982843E9, 0.0, 2025-08-29 14:41:53.998
76.0, 588.2675635302439, 419.16985698370263, 311.2737432620488, 271.7878795298748, 0.0, 0.144000006839633, 0.944000044837594, 0.0, 0.0, 0.0, 0.0, 0.0, 1.7564893139982843E9, 0.0, 2025-08-29 14:41:53.998
77.0, 549.5446393890306, 391.5020771115087, 253.12577875098214, 204.50707932701334, 0.0, 0.144000006839633, 0.944000044837594, 0.0, 0.0, 0.0, 0.0, 0.0, 1.7564893139990065E9, 0.0, 2025-08-29 14:41:53.999
77.0, 432.0893413806334, 359.4586142911576, 330.6277255327441, 322.8300341251306, 0.0, 0.144000006839633, 0.944000044837594, 0.0, 0.0, 0.0, 0.0, 0.0, 1.7564893139990065E9, 0.0, 2025-08-29 14:41:53.999
78.0, 533.6500645773485, 400.45165770547464, 333.88517839415, 319.2808690671809, 0.0, 0.144000006839633, 0.944000044837594, 0.0, 0.0, 0.0, 0.0, 0.0, 1.756489313999764E9, 0.0, 2025-08-29 14:41:53.999
78.0, 606.032088319771, 426.82917209295556, 277.1508960663341, 234.04480917705223, 0.0, 0.144000006839633, 0.944000044837594, 0.0, 0.0, 0.0, 0.0, 0.0, 1.756489313999764E9, 0.0, 2025-08-29 14:41:53.999
79.0, 446.16258491389453, 361.36222336860374, 300.2298186928965, 295.7830776455812, 0.0, 0.144000006839633, 0.944000044837594, 0.0, 0.0, 0.0, 0.0, 0.0, 1.756489314011971E9, 0.0, 2025-08-29 14:41:54.011
79.0, 472.8841700972989, 374.818383409176, 335.90098447026685, 343.9866481744684, 0.0, 0.144000006839633, 0.944000044837594, 0.0, 0.0, 0.0, 0.0, 0.0, 1.756489314011971E9, 0.0, 2025-08-29 14:41:54.011
80.0, 602.7596758585423, 423.1902494360693, 281.39942241599783, 255.08174642780796, 0.0, 0.144000006839633, 0.9760000463575125, 0.0, 0.0, 0.0, 0.0, 0.0, 1.756489314027594E9, 0.0, 2025-08-29 14:41:54.027
80.0, 511.790349336341, 391.2402841146104, 292.9332738793455, 263.7059557256289, 0.0, 0.144000006839633, 0.9760000463575125, 0.0, 0.0, 0.0, 0.0, 0.0, 1.756489314027594E9, 0.0, 2025-08-29 14:41:54.027
81.0, 422.54511669371277, 347.2553207357414, 346.8027928411029, 341.0059479097836, 0.0, 0.09600000455975533, 0.9760000463575125, 0.0, 0.0, 0.0, 0.0, 0.0, 1.756489314028324E9, 0.0, 2025-08-29 14:41:54.028
81.0, 601.3385138753802, 431.4367288383655, 331.71229651989415, 310.2303111744113, 0.0, 0.09600000455975533, 0.9760000463575125, 0.0, 0.0, 0.0, 0.0, 0.0, 1.756489314028324E9, 0.0, 2025-08-29 14:41:54.028
82.0, 569.295051055029, 408.660738108214, 236.74875684501603, 217.88844136847183, 0.0, 0.09600000455975533, 0.9760000463575125, 0.0, 0.0, 0.0, 0.0, 0.0, 1.7564893140583189E9, 0.0, 2025-08-29 14:41:54.058
82.0, 430.2754899021238, 357.1473561185412, 304.10435504699126, 304.1903727459721, 0.0, 0.09600000455975533, 0.9760000463575125, 0.0, 0.0, 0.0, 0.0, 0.0, 1.7564893140583189E9, 0.0, 2025-08-29 14:41:54.058
83.0, 543.3588448623195, 402.56844108039513, 372.0845165415667, 353.28403946431354, 0.0, 0.09600000455975533, 0.9760000463575125, 0.0, 0.0, 0.0, 0.0, 0.0, 1.7564893140590553E9, 0.0, 2025-08-29 14:41:54.059
83.0, 604.4987293379381, 416.37989161675796, 300.2447782927193, 261.1067252564244, 0.0, 0.09600000455975533, 0.9760000463575125, 0.0, 0.0, 0.0, 0.0, 0.0, 1.7564893140590553E9, 0.0, 2025-08-29 14:41:54.059
84.0, 456.1443778956309, 362.0391452605836, 352.2593068764545, 342.65150389028713, 0.0, 0.09600000455975533, 0.9760000463575125, 0.0, 0.0, 0.0, 0.0, 0.0, 1.7564893140598109E9, 0.0, 2025-08-29 14:41:54.059
84.0, 498.1920730974525, 398.29373543104157, 433.0411459193565, 409.41993779921904, 0.0, 0.09600000455975533, 0.9760000463575125, 0.0, 0.0, 0.0, 0.0, 0.0, 1.7564893140598109E9, 0.0, 2025-08-29 14:41:54.059
85.0, 601.5142891732976, 418.103985496331, 329.1803842498921, 267.90586337586865, 0.0, 0.09600000455975533, 0.9760000463575125, 0.0, 0.0, 0.0, 0.0, 0.0, 1.7564893140719695E9, 0.0, 2025-08-29 14:41:54.071
85.0, 530.7217229120433, 410.1043394911103, 365.47237341990694, 306.48293141881004, 0.0, 0.09600000455975533, 0.9760000463575125, 0.0, 0.0, 0.0, 0.0, 0.0, 1.7564893140719695E9, 0.0, 2025-08-29 14:41:54.071
86.0, 452.7672482356429, 376.89028798462823, 431.61250413628295, 414.23318904219195, 0.0, 0.09600000455975533, 0.9760000463575125, 0.0, 0.0, 0.0, 0.0, 0.0, 1.756489314087567E9, 0.0, 2025-08-29 14:41:54.087
86.0, 593.9447316629812, 424.12896432494745, 369.500245672185, 302.74303146312013, 0.0, 0.09600000455975533, 0.9760000463575125, 0.0, 0.0, 0.0, 0.0, 0.0, 1.756489314087567E9, 0.0, 2025-08-29 14:41:54.087
87.0, 595.1788986483589, 431.72470113495365, 348.32119222311303, 275.20240818941966, 0.0, 0.09600000455975533, 0.9760000463575125, 0.0, 0.0, 0.0, 0.0, 0.0, 1.756489314088296E9, 0.0, 2025-08-29 14:41:54.088
87.0, 431.85746758338064, 360.94335457356647, 394.2509035789408, 361.24628646997735, 0.0, 0.09600000455975533, 0.9760000463575125, 0.0, 0.0, 0.0, 0.0, 0.0, 1.756489314088296E9, 0.0, 2025-08-29 14:41:54.088
88.0, 554.7393604274839, 416.1068789199926, 410.1753975902684, 365.64814871782437, 0.0, 0.09600000455975533, 0.9760000463575125, 0.0, 0.0, 0.0, 0.0, 0.0, 1.7564893141183E9, 0.0, 2025-08-29 14:41:54.118
88.0, 621.8668247321621, 435.42720209108666, 328.05093446327373, 232.77698309207335, 0.0, 0.09600000455975533, 0.9760000463575125, 0.0, 0.0, 0.0, 0.0, 0.0, 1.7564893141183E9, 0.0, 2025-08-29 14:41:54.118
89.0, 465.05281959008425, 374.14146151719615, 356.1413230304606, 297.6418079235591, 0.0, 0.09600000455975533, 0.9760000463575125, 0.0, 0.0, 0.0, 0.0, 0.0, 1.7564893141190364E9, 0.0, 2025-08-29 14:41:54.119
89.0, 494.8747818367556, 387.4891644590534, 404.909618452657, 356.8219848223962, 0.0, 0.09600000455975533, 0.9760000463575125, 0.0, 0.0, 0.0, 0.0, 0.0, 1.7564893141190364E9, 0.0, 2025-08-29 14:41:54.119
90.0, 636.2766592614353, 446.24673266289756, 339.0611999328248, 253.74660214362666, 0.0, 0.09600000455975533, 0.9760000463575125, 0.0, 0.0, 0.0, 0.0, 0.0, 1.7564893141197762E9, 0.0, 2025-08-29 14:41:54.119
90.0, 519.4421846456826, 399.0978139215149, 315.1744589158334, 250.20117698563263, 0.0, 0.09600000455975533, 0.9760000463575125, 0.0, 0.0, 0.0, 0.0, 0.0, 1.7564893141197762E9, 0.0, 2025-08-29 14:41:54.119
91.0, 460.90527053922415, 377.3054168797098, 402.172011685092, 362.1625619591214, 0.0, 0.09600000455975533, 0.9760000463575125, 0.0, 0.0, 0.0, 0.0, 0.0, 1.756489314131977E9, 0.0, 2025-08-29 14:41:54.131
91.0, 618.1157050766051, 444.61613628221676, 359.8139047869481, 284.46240047970787, 0.0, 0.09600000455975533, 0.9760000463575125, 0.0, 0.0, 0.0, 0.0, 0.0, 1.756489314131977E9, 0.0, 2025-08-29 14:41:54.131
92.0, 592.9536581747234, 432.23706742888317, 301.95765247242525, 229.21659833425656, 0.01600000075995922, 0.09600000455975533, 0.9760000463575125, 0.0, 0.0, 0.0, 0.0, 0.0, 1.756489314163993E9, 0.0, 2025-08-29 14:41:54.163
92.0, 437.280322519131, 365.25545922247693, 358.9724272969179, 319.5763211636804, 0.01600000075995922, 0.09600000455975533, 0.9760000463575125, 0.0, 0.0, 0.0, 0.0, 0.0, 1.756489314163993E9, 0.0, 2025-08-29 14:41:54.163
93.0, 534.6149587659165, 392.2762364023365, 352.39768317481503, 296.4525197376497, 0.01600000075995922, 0.09600000455975533, 0.9760000463575125, 0.0, 0.0, 0.0, 0.0, 0.0, 1.7564893141647425E9, 0.0, 2025-08-29 14:41:54.164
93.0, 618.4709955723956, 427.8090258813463, 288.4192146328278, 200.05285847978666, 0.01600000075995922, 0.09600000455975533, 0.9760000463575125, 0.0, 0.0, 0.0, 0.0, 0.0, 1.7564893141647425E9, 0.0, 2025-08-29 14:41:54.164
94.0, 479.83664411492646, 384.8749743900262, 339.9886951218359, 288.79694452835247, 0.01600000075995922, 0.09600000455975533, 0.9760000463575125, 0.0, 0.0, 0.0, 0.0, 0.0, 1.756489314165472E9, 0.0, 2025-08-29 14:41:54.165
94.0, 506.8798606945202, 397.6990913380869, 383.47625180659816, 353.893643157091, 0.01600000075995922, 0.09600000455975533, 0.9760000463575125, 0.0, 0.0, 0.0, 0.0, 0.0, 1.756489314165472E9, 0.0, 2025-08-29 14:41:54.165
95.0, 656.9770055161789, 461.389587583486, 329.23274284927174, 234.64319316996261, 0.01600000075995922, 0.09600000455975533, 0.9760000463575125, 0.0, 0.0, 0.0, 0.0, 0.0, 1.7564893141662169E9, 0.0, 2025-08-29 14:41:54.166
95.0, 522.8342739054933, 382.3542818198912, 291.3886951976456, 223.9059403971769, 0.01600000075995922, 0.09600000455975533, 0.9760000463575125, 0.0, 0.0, 0.0, 0.0, 0.0, 1.7564893141662169E9, 0.0, 2025-08-29 14:41:54.166
96.0, 445.42208472266793, 358.13094980688766, 369.077636977192, 336.05432036845013, 0.01600000075995922, 0.09600000455975533, 0.9760000463575125, 0.0, 0.0, 0.0, 0.0, 0.0, 1.7564893141769705E9, 0.0, 2025-08-29 14:41:54.176
96.0, 616.0961591005325, 437.32707126857713, 343.5229005799629, 264.89898381149396, 0.01600000075995922, 0.09600000455975533, 0.9760000463575125, 0.0, 0.0, 0.0, 0.0, 0.0, 1.7564893141769705E9, 0.0, 2025-08-29 14:41:54.176
97.0, 605.4262245269492, 435.64785618847236, 300.9703188841231, 229.78506312752143, 0.01600000075995922, 0.09600000455975533, 0.9760000463575125, 0.0, 0.0, 0.0, 0.0, 0.0, 1.7564893141919675E9, 0.0, 2025-08-29 14:41:54.191
97.0, 460.508841143921, 379.14918755786493, 373.8198301210068, 342.6963826897554, 0.01600000075995922, 0.09600000455975533, 0.9760000463575125, 0.0, 0.0, 0.0, 0.0, 0.0, 1.7564893141919675E9, 0.0, 2025-08-29 14:41:54.191
98.0, 555.5359591180459, 406.37939913524315, 367.55175779527053, 319.47908376483247, 0.01600000075995922, 0.09600000455975533, 0.9760000463575125, 0.0, 0.0, 0.0, 0.0, 0.0, 1.756489314207594E9, 0.0, 2025-08-29 14:41:54.207
98.0, 621.2609609393403, 429.16660956526175, 284.02109228493646, 217.88470146851614, 0.01600000075995922, 0.09600000455975533, 0.9760000463575125, 0.0, 0.0, 0.0, 0.0, 0.0, 1.756489314207594E9, 0.0, 2025-08-29 14:41:54.207
99.0, 482.4919730834663, 387.80705595528707, 355.1465096422471, 315.5484489114024, 0.01600000075995922, 0.09600000455975533, 0.9760000463575125, 0.0, 0.0, 0.0, 0.0, 0.0, 1.7564893142083216E9, 0.0, 2025-08-29 14:41:54.208
99.0, 472.1848088055849, 364.084870536346, 372.92225413164124, 338.30574014177546, 0.01600000075995922, 0.09600000455975533, 0.9760000463575125, 0.0, 0.0, 0.0, 0.0, 0.0, 1.7564893142083216E9, 0.0, 2025-08-29 14:41:54.208
100.0, 623.471241813153, 426.64965689508244, 305.4619387309067, 227.59348175348714, 0.01600000075995922, 0.09600000455975533, 0.9920000471174717, 0.0, 0.0, 0.0, 0.0, 0.0, 1.756489314222603E9, 0.0, 2025-08-29 14:41:54.222
100.0, 519.6403993433341, 389.4189528361894, 297.61936852382496, 255.05182722816244, 0.01600000075995922, 0.09600000455975533, 0.9920000471174717, 0.0, 0.0, 0.0, 0.0, 0.0, 1.756489314222603E9, 0.0, 2025-08-29 14:41:54.222
0.0, 435.7320039374754, 351.3392914873548, 367.9163980409503, 342.6589836901985, 0.01600000075995922, 0.09600000455975533, 0.9920000471174717, 0.0, 0.0, 0.0, 0.0, 0.0, 1.7564893142233305E9, 0.0, 2025-08-29 14:41:54.223
1.0, 599.0571749024093, 424.38701742189005, 339.0929890824482, 276.72454747138545, 0.01600000075995922, 0.0800000037997961, 0.9920000471174717, 0.0, 0.0, 0.0, 0.0, 0.0, 1.7564893142369697E9, 0.0, 2025-08-29 14:41:54.236
1.0, 583.7235850840807, 423.7362748296, 305.98365477472544, 239.30310851475224, 0.01600000075995922, 0.0800000037997961, 0.9920000471174717, 0.0, 0.0, 0.0, 0.0, 0.0, 1.7564893142369697E9, 0.0, 2025-08-29 14:41:54.236
2.0, 400.0122194606811, 328.60443965671584, 344.2839702209458, 311.25130386231467, 0.0, 0.0800000037997961, 0.9920000471174717, 0.0, 0.0, 0.0, 0.0, 0.0, 1.756489314252614E9, 0.0, 2025-08-29 14:41:54.252
2.0, 521.0466017266735, 384.1943125980906, 351.22896443866193, 307.40294680790976, 0.0, 0.0800000037997961, 0.9920000471174717, 0.0, 0.0, 0.0, 0.0, 0.0, 1.756489314252614E9, 0.0, 2025-08-29 14:41:54.252
3.0, 604.270595440641, 422.34129214612767, 281.93235815968364, 206.7472794004716, 0.0, 0.0800000037997961, 0.9920000471174717, 0.0, 0.0, 0.0, 0.0, 0.0, 1.7564893142533271E9, 0.0, 2025-08-29 14:41:54.253
3.0, 452.04918744415045, 365.31529762176797, 321.57903758995235, 283.2992915934883, 0.0, 0.0800000037997961, 0.9920000471174717, 0.0, 0.0, 0.0, 0.0, 0.0, 1.7564893142533271E9, 0.0, 2025-08-29 14:41:54.253
4.0, 477.54034554213285, 375.6000224999152, 372.8829851821065, 349.4394223098643, 0.0, 0.0800000037997961, 0.9920000471174717, 0.0, 0.0, 0.0, 0.0, 0.0, 1.7564893142669673E9, 0.0, 2025-08-29 14:41:54.266
4.0, 626.4220228781924, 444.02523208921775, 302.7374216131866, 234.33278147364035, 0.0, 0.0800000037997961, 0.9920000471174717, 0.0, 0.0, 0.0, 0.0, 0.0, 1.7564893142669673E9, 0.0, 2025-08-29 14:41:54.266
5.0, 517.9013458639383, 399.48302361695096, 291.90293144155294, 251.48770257038996, 0.0, 0.0800000037997961, 0.9920000471174717, 0.0, 0.0, 0.0, 0.0, 0.0, 1.7564893142826076E9, 0.0, 2025-08-29 14:41:54.282
5.0, 449.90248486958444, 379.0444703591056, 388.16795630101115, 374.44065351365134, 0.0, 0.0800000037997961, 0.9920000471174717, 0.0, 0.0, 0.0, 0.0, 0.0, 1.7564893142826076E9, 0.0, 2025-08-29 14:41:54.282
6.0, 580.8924808176234, 417.3298262055032, 329.28697139862925, 267.4757748809643, 0.0, 0.0800000037997961, 0.9920000471174717, 0.0, 0.0, 0.0, 0.0, 0.0, 1.7564893142833793E9, 0.0, 2025-08-29 14:41:54.283
6.0, 558.2137274863198, 403.07706747436896, 273.4689645599574, 207.86924938717857, 0.0, 0.0800000037997961, 0.9920000471174717, 0.0, 0.0, 0.0, 0.0, 0.0, 1.7564893142833793E9, 0.0, 2025-08-29 14:41:54.283
7.0, 394.7015615236014, 329.0345281516202, 334.99405873101205, 314.54989562323317, 0.0, 0.0800000037997961, 0.9920000471174717, 0.0, 0.0, 0.0, 0.0, 0.0, 1.756489314296968E9, 0.0, 2025-08-29 14:41:54.296
7.0, 538.7812073165551, 403.8026080657728, 362.41874510608613, 327.41515147080645, 0.0, 0.0800000037997961, 0.9920000471174717, 0.0, 0.0, 0.0, 0.0, 0.0, 1.756489314296968E9, 0.0, 2025-08-29 14:41:54.296
8.0, 602.9653703561053, 418.08902589650825, 261.5611231010407, 198.49706009821966, 0.0, 0.0800000037997961, 0.9920000471174717, 0.0, 0.0, 0.0, 0.0, 0.0, 1.7564893143126E9, 0.0, 2025-08-29 14:41:54.312
8.0, 454.30434711743146, 364.0063326372765, 320.9395146975294, 288.28457823442295, 0.0, 0.0800000037997961, 0.9920000471174717, 0.0, 0.0, 0.0, 0.0, 0.0, 1.7564893143126E9, 0.0, 2025-08-29 14:41:54.312
9.0, 500.25275797303766, 398.2077177320607, 395.7412537112832, 381.10141533473507, 0.0, 0.0800000037997961, 0.9920000471174717, 0.0, 0.0, 0.0, 0.0, 0.0, 1.756489314313352E9, 0.0, 2025-08-29 14:41:54.313
9.0, 631.0482791233808, 439.4214152437635, 305.7405612776056, 250.70606347965077, 0.0, 0.0800000037997961, 0.9920000471174717, 0.0, 0.0, 0.0, 0.0, 0.0, 1.756489314313352E9, 0.0, 2025-08-29 14:41:54.313
10.0, 510.6945586493239, 384.43740609521046, 296.20381639059633, 241.8051015851088, 0.0, 0.0800000037997961, 0.9760000463575125, 0.0, 0.0, 0.0, 0.0, 0.0, 1.756489314326984E9, 0.0, 2025-08-29 14:41:54.326
10.0, 442.9537507519126, 363.8604765390046, 386.49248112086207, 385.36864118417725, 0.0, 0.0800000037997961, 0.9760000463575125, 0.0, 0.0, 0.0, 0.0, 0.0, 1.756489314326984E9, 0.0, 2025-08-29 14:41:54.326
11.0, 594.9582445509732, 421.38013785751536, 334.2236393401399, 288.51271213172004, 0.0, 0.06400000303983688, 0.9760000463575125, 0.0, 0.0, 0.0, 0.0, 0.0, 1.7564893143425944E9, 0.0, 2025-08-29 14:41:54.342
11.0, 586.9772980455309, 429.90710975648835, 298.0251476690173, 246.15460523357615, 0.0, 0.06400000303983688, 0.9760000463575125, 0.0, 0.0, 0.0, 0.0, 0.0, 1.7564893143425944E9, 0.0, 2025-08-29 14:41:54.342
12.0, 413.520738100633, 344.7421079655178, 357.2128043677658, 344.1063249730505, 0.0, 0.06400000303983688, 0.9760000463575125, 0.0, 0.0, 0.0, 0.0, 0.0, 1.7564893143433352E9, 0.0, 2025-08-29 14:41:54.343
12.0, 523.7580291945487, 393.2074714913033, 362.29532840754837, 318.14767938060686, 0.0, 0.06400000303983688, 0.9760000463575125, 0.0, 0.0, 0.0, 0.0, 0.0, 1.7564893143433352E9, 0.0, 2025-08-29 14:41:54.343
13.0, 592.9199990751222, 410.96825638087466, 271.11656748782843, 197.46858761040494, 0.0, 0.06400000303983688, 0.9760000463575125, 0.0, 0.0, 0.0, 0.0, 0.0, 1.7564893143569698E9, 0.0, 2025-08-29 14:41:54.356
13.0, 444.1355591379106, 352.49866047361866, 329.6086027948186, 294.35443586250767, 0.0, 0.06400000303983688, 0.9760000463575125, 0.0, 0.0, 0.0, 0.0, 0.0, 1.7564893143569698E9, 0.0, 2025-08-29 14:41:54.356
14.0, 479.0512651242316, 372.4173676376231, 399.64944916497916, 392.680145597551, 0.0, 0.06400000303983688, 0.9760000463575125, 0.0, 0.0, 0.0, 0.0, 0.0, 1.7564893143725944E9, 0.0, 2025-08-29 14:41:54.372
14.0, 617.4313033847138, 428.934735768009, 311.93757550418377, 252.83406655443832, 0.0, 0.06400000303983688, 0.9760000463575125, 0.0, 0.0, 0.0, 0.0, 0.0, 1.7564893143725944E9, 0.0, 2025-08-29 14:41:54.372
15.0, 521.8955590166152, 402.2842086837627, 325.28153854608536, 281.61259671347216, 0.0, 0.06400000303983688, 0.9760000463575125, 0.0, 0.0, 0.0, 0.0, 0.0, 1.7564893143733387E9, 0.0, 2025-08-29 14:41:54.373
15.0, 416.62485506385565, 344.4092568694614, 382.37859116960317, 353.7814461584203, 0.0, 0.06400000303983688, 0.9760000463575125, 0.0, 0.0, 0.0, 0.0, 0.0, 1.7564893143733387E9, 0.0, 2025-08-29 14:41:54.373
16.0, 598.675705106929, 431.75462033459917, 343.10964163485914, 301.5799225769006, 0.0, 0.06400000303983688, 0.9760000463575125, 0.0, 0.0, 0.0, 0.0, 0.0, 1.7564893143869684E9, 0.0, 2025-08-29 14:41:54.386
16.0, 566.8454165840521, 408.9823695044033, 279.6435393868014, 223.35617510369048, 0.0, 0.06400000303983688, 0.9760000463575125, 0.0, 0.0, 0.0, 0.0, 0.0, 1.7564893143869684E9, 0.0, 2025-08-29 14:41:54.386
17.0, 428.67107282113284, 363.0152591490187, 375.05212715640664, 358.1085104071535, 0.0, 0.06400000303983688, 0.9760000463575125, 0.0, 0.0, 0.0, 0.0, 0.0, 1.7564893144025953E9, 0.0, 2025-08-29 14:41:54.402
17.0, 542.3677713740617, 410.9607765809633, 382.6553437663242, 339.4052707287483, 0.0, 0.06400000303983688, 0.9760000463575125, 0.0, 0.0, 0.0, 0.0, 0.0, 1.7564893144025953E9, 0.0, 2025-08-29 14:41:54.402
18.0, 612.8798451386392, 432.5661786249839, 294.4086644118652, 229.4634317313321, 0.0, 0.06400000303983688, 0.9760000463575125, 0.0, 0.0, 0.0, 0.0, 0.0, 1.7564893144033055E9, 0.0, 2025-08-29 14:41:54.403
18.0, 475.91722896136343, 385.11058808723465, 350.5782218463719, 319.6585989627056, 0.0, 0.06400000303983688, 0.9760000463575125, 0.0, 0.0, 0.0, 0.0, 0.0, 1.7564893144033055E9, 0.0, 2025-08-29 14:41:54.403
19.0, 472.4540816023946, 370.573596959468, 384.4504957450554, 358.7517731995322, 0.0, 0.06400000303983688, 0.9760000463575125, 0.0, 0.0, 0.0, 0.0, 0.0, 1.7564893144169776E9, 0.0, 2025-08-29 14:41:54.416
19.0, 616.8366592917591, 424.1738431244157, 328.0827236128971, 254.81247363099828, 0.0, 0.06400000303983688, 0.9760000463575125, 0.0, 0.0, 0.0, 0.0, 0.0, 1.7564893144169776E9, 0.0, 2025-08-29 14:41:54.416
20.0, 508.55533587466925, 385.3424618844874, 323.5237855669111, 261.8771446472965, 0.0, 0.06400000303983688, 0.9760000463575125, 0.0, 0.0, 0.0, 0.0, 0.0, 1.756489314432642E9, 0.0, 2025-08-29 14:41:54.432
20.0, 437.8413075124845, 362.7385065522976, 413.7488719979301, 392.8409612956457, 0.0, 0.06400000303983688, 0.9760000463575125, 0.0, 0.0, 0.0, 0.0, 0.0, 1.756489314432642E9, 0.0, 2025-08-29 14:41:54.432
21.0, 578.2408917490393, 412.845686158631, 345.6378140049055, 277.7904189587571, 0.0, 0.06400000303983688, 0.9760000463575125, 0.0, 0.0, 0.0, 0.0, 0.0, 1.7564893144333708E9, 0.0, 2025-08-29 14:41:54.433
21.0, 563.1167363282293, 403.3164210715331, 297.5539202746004, 226.69216586416587, 0.0, 0.06400000303983688, 0.9760000463575125, 0.0, 0.0, 0.0, 0.0, 0.0, 1.7564893144333708E9, 0.0, 2025-08-29 14:41:54.433
22.0, 410.25580543931574, 338.68347003730014, 376.16287744324654, 361.9755669613369, 0.0, 0.06400000303983688, 0.9760000463575125, 0.0, 0.0, 0.0, 0.0, 0.0, 1.75648931444699E9, 0.0, 2025-08-29 14:41:54.446
22.0, 513.1928118197247, 380.61896824045107, 372.15370469074696, 335.7775677717291, 0.0, 0.06400000303983688, 0.9760000463575125, 0.0, 0.0, 0.0, 0.0, 0.0, 1.75648931444699E9, 0.0, 2025-08-29 14:41:54.446
23.0, 590.5414227033034, 409.70791009580716, 272.26471677422523, 212.49550563236699, 0.0, 0.06400000303983688, 0.9760000463575125, 0.0, 0.0, 0.0, 0.0, 0.0, 1.7564893144626412E9, 0.0, 2025-08-29 14:41:54.462
23.0, 428.427979324013, 338.6946897371672, 323.4826466673985, 291.39243509760126, 0.0, 0.06400000303983688, 0.9760000463575125, 0.0, 0.0, 0.0, 0.0, 0.0, 1.7564893144626412E9, 0.0, 2025-08-29 14:41:54.462
24.0, 438.0320424102247, 340.08967242063954, 363.67535149119794, 333.48874899884686, 0.0, 0.06400000303983688, 0.9760000463575125, 0.0, 0.0, 0.0, 0.0, 0.0, 1.7564893144634008E9, 0.0, 2025-08-29 14:41:54.463
24.0, 589.9991372097284, 407.7669020188041, 274.73679064493626, 201.8891493580304, 0.0, 0.06400000303983688, 0.9760000463575125, 0.0, 0.0, 0.0, 0.0, 0.0, 1.7564893144634008E9, 0.0, 2025-08-29 14:41:54.463
25.0, 503.3194759367034, 381.40434723114595, 271.6850322810933, 218.47560566151515, 0.0, 0.06400000303983688, 0.9760000463575125, 0.0, 0.0, 0.0, 0.0, 0.0, 1.7564893144768963E9, 0.0, 2025-08-29 14:41:54.476
25.0, 422.66853339225054, 342.5131275919266, 358.37965315394104, 350.9316423921846, 0.0, 0.06400000303983688, 0.9760000463575125, 0.0, 0.0, 0.0, 0.0, 0.0, 1.7564893144768963E9, 0.0, 2025-08-29 14:41:54.476
26.0, 507.88963368255645, 340.16073051979765, 216.2148361383006, 159.3141282624565, 0.0, 0.06400000303983688, 0.9760000463575125, 0.0, 0.0, 0.0, 0.0, 0.0, 1.7564893144926505E9, 0.0, 2025-08-29 14:41:54.492
26.0, 536.8140199398622, 380.5778293409385, 187.29418978095055, 116.20056157326326, 0.0, 0.06400000303983688, 0.9760000463575125, 0.0, 0.0, 0.0, 0.0, 0.0, 1.7564893144926505E9, 0.0, 2025-08-29 14:41:54.492
27.0, 378.2123426189646, 318.8358209724538, 258.36724853888154, 246.47997652972117, 0.0, 0.06400000303983688, 0.9760000463575125, 0.0, 0.0, 0.0, 0.0, 0.0, 1.7564893144933767E9, 0.0, 2025-08-29 14:41:54.493
27.0, 470.2998992279172, 346.76165394159034, 242.56991112604737, 211.16410124814138, 0.0, 0.06400000303983688, 0.9760000463575125, 0.0, 0.0, 0.0, 0.0, 0.0, 1.7564893144933767E9, 0.0, 2025-08-29 14:41:54.493
28.0, 562.6903877332807, 380.8957208371721, 167.67841451335698, 96.79796060314402, 0.0, 0.06400000303983688, 0.9760000463575125, 0.0, 0.0, 0.0, 0.0, 0.0, 1.7564893145068886E9, 0.0, 2025-08-29 14:41:54.506
28.0, 404.02887201309204, 324.70372400293127, 207.07826054655015, 171.16213132208213, 0.0, 0.06400000303983688, 0.9760000463575125, 0.0, 0.0, 0.0, 0.0, 0.0, 1.7564893145068886E9, 0.0, 2025-08-29 14:41:54.506
29.0, 445.93071111664176, 359.4885334908031, 291.8468329422176, 258.9188837823458, 0.0, 0.06400000303983688, 0.9760000463575125, 0.0, 0.0, 0.0, 0.0, 0.0, 1.7564893145226593E9, 0.0, 2025-08-29 14:41:54.522
29.0, 571.9391603237018, 392.6090874983929, 185.22976500540972, 114.71208139089867, 0.0, 0.06400000303983688, 0.9760000463575125, 0.0, 0.0, 0.0, 0.0, 0.0, 1.7564893145226593E9, 0.0, 2025-08-29 14:41:54.522
30.0, 468.01108045503497, 353.4934738618322, 179.14868767745793, 122.74912639567629, 0.0, 0.06400000303983688, 0.9760000463575125, 0.0, 0.0, 0.0, 0.0, 0.0, 1.7564893145234413E9, 0.0, 2025-08-29 14:41:54.523
30.0, 372.63615178503096, 311.96936465380713, 270.506963795051, 260.05207346891984, 0.0, 0.06400000303983688, 0.9760000463575125, 0.0, 0.0, 0.0, 0.0, 0.0, 1.7564893145234413E9, 0.0, 2025-08-29 14:41:54.523
31.0, 541.0288871899247, 378.39746766677126, 224.76798733696342, 168.24126945668831, 0.0, 0.06400000303983688, 0.9760000463575125, 0.0, 0.0, 0.0, 0.0, 0.0, 1.7564893145368938E9, 0.0, 2025-08-29 14:41:54.536
31.0, 537.3488256335258, 389.29927603760734, 177.76118479389697, 125.06038456829265, 0.0, 0.06400000303983688, 0.9760000463575125, 0.0, 0.0, 0.0, 0.0, 0.0, 1.7564893145368938E9, 0.0, 2025-08-29 14:41:54.536
32.0, 368.86633262969553, 303.4610922546126, 252.596582907252, 226.56126936571673, 0.0, 0.06400000303983688, 0.9760000463575125, 0.0, 0.0, 0.0, 0.0, 0.0, 1.7564893145526154E9, 0.0, 2025-08-29 14:41:54.552
32.0, 496.2361054206267, 372.32761003868654, 274.3852400491014, 235.66044595791027, 0.0, 0.06400000303983688, 0.9760000463575125, 0.0, 0.0, 0.0, 0.0, 0.0, 1.7564893145526154E9, 0.0, 2025-08-29 14:41:54.552
33.0, 574.7029463909566, 408.8065942064859, 195.44343178439885, 129.73899941286072, 0.0, 0.06400000303983688, 0.9760000463575125, 0.0, 0.0, 0.0, 0.0, 0.0, 1.7564893145533452E9, 0.0, 2025-08-29 14:41:54.553
33.0, 425.7950897552073, 345.0338201620616, 245.90216198656708, 211.63158874260262, 0.0, 0.06400000303983688, 0.9760000463575125, 0.0, 0.0, 0.0, 0.0, 0.0, 1.7564893145533452E9, 0.0, 2025-08-29 14:41:54.553
34.0, 437.26910281926394, 344.5214538681321, 290.5528275575489, 269.57385875610635, 0.0, 0.06400000303983688, 0.9760000463575125, 0.0, 0.0, 0.0, 0.0, 0.0, 1.756489314566935E9, 0.0, 2025-08-29 14:41:54.566
34.0, 592.6582060782239, 418.45553609216586, 215.74360874388367, 155.33861460955814, 0.0, 0.06400000303983688, 0.9760000463575125, 0.0, 0.0, 0.0, 0.0, 0.0, 1.756489314566935E9, 0.0, 2025-08-29 14:41:54.566
35.0, 505.0547895161435, 378.0197377712466, 230.38531707040966, 171.2518889210187, 0.0, 0.06400000303983688, 0.9760000463575125, 0.0, 0.0, 0.0, 0.0, 0.0, 1.7564893145826232E9, 0.0, 2025-08-29 14:41:54.582
35.0, 405.28921829815954, 329.00086905201897, 327.3497032215819, 310.234051074367, 0.0, 0.06400000303983688, 0.9760000463575125, 0.0, 0.0, 0.0, 0.0, 0.0, 1.7564893145826232E9, 0.0, 2025-08-29 14:41:54.582
36.0, 570.1589679447934, 409.12448570271954, 263.9471792727709, 214.5674102078192, 0.0, 0.06400000303983688, 0.9760000463575125, 0.0, 0.0, 0.0, 0.0, 0.0, 1.7564893145833545E9, 0.0, 2025-08-29 14:41:54.583
36.0, 521.0952204260975, 370.4464403609745, 165.2624391419813, 113.1076643099077, 0.0, 0.06400000303983688, 0.9760000463575125, 0.0, 0.0, 0.0, 0.0, 0.0, 1.7564893145833545E9, 0.0, 2025-08-29 14:41:54.583
37.0, 385.6210844311863, 320.7244704500772, 288.00221578776836, 286.0855170604773, 0.0, 0.06400000303983688, 0.9760000463575125, 0.0, 0.0, 0.0, 0.0, 0.0, 1.7564893145969172E9, 0.0, 2025-08-29 14:41:54.596
37.0, 516.614820279181, 395.1223002686165, 302.9281565109268, 282.4877333031036, 0.0, 0.06400000303983688, 0.9760000463575125, 0.0, 0.0, 0.0, 0.0, 0.0, 1.7564893145969172E9, 0.0, 2025-08-29 14:41:54.596
38.0, 606.2751818168908, 434.2229543053545, 217.78185421973467, 152.50751034310088, 0.0, 0.06400000303983688, 0.9760000463575125, 0.0, 0.0, 0.0, 0.0, 0.0, 1.756489314612615E9, 0.0, 2025-08-29 14:41:54.612
38.0, 446.9554437045008, 354.0320194554515, 285.8704728130251, 248.88473220122978, 0.0, 0.06400000303983688, 0.9760000463575125, 0.0, 0.0, 0.0, 0.0, 0.0, 1.756489314612615E9, 0.0, 2025-08-29 14:41:54.612
39.0, 460.86039173975587, 356.5601918254979, 333.73371244594455, 298.18035351717845, 0.0, 0.06400000303983688, 0.9760000463575125, 0.0, 0.0, 0.0, 0.0, 0.0, 1.7564893146133451E9, 0.0, 2025-08-29 14:41:54.613
39.0, 601.3497335752472, 414.6520578372292, 230.4040165701881, 173.70152339199558, 0.0, 0.06400000303983688, 0.9760000463575125, 0.0, 0.0, 0.0, 0.0, 0.0, 1.7564893146133451E9, 0.0, 2025-08-29 14:41:54.613
40.0, 503.4915113346651, 381.7484180270694, 246.8932354748249, 208.65088847791776, 0.0, 0.06400000303983688, 0.9760000463575125, 0.0, 0.0, 0.0, 0.0, 0.0, 1.7564893146269715E9, 0.0, 2025-08-29 14:41:54.626
40.0, 416.2359054684639, 338.0663865446113, 342.9862249363214, 337.8158132475801, 0.0, 0.06400000303983688, 0.9760000463575125, 0.0, 0.0, 0.0, 0.0, 0.0, 1.7564893146269715E9, 0.0, 2025-08-29 14:41:54.626
41.0, 561.6619152454659, 398.8734199241735, 258.6140819359571, 223.52073070174083, 0.0, 0.04800000227987766, 0.9760000463575125, 0.0, 0.0, 0.0, 0.0, 0.0, 1.7564893146426213E9, 0.0, 2025-08-29 14:41:54.642
41.0, 577.8519421536475, 421.3352590580471, 240.46808735094965, 183.74315477302298, 0.0, 0.04800000227987766, 0.9760000463575125, 0.0, 0.0, 0.0, 0.0, 0.0, 1.7564893146426213E9, 0.0, 2025-08-29 14:41:54.642
42.0, 384.6674099424854, 311.26252356218174, 285.6273793159053, 279.69028813624755, 0.0, 0.04800000227987766, 0.9760000463575125, 0.0, 0.0, 0.0, 0.0, 0.0, 1.7564893146433473E9, 0.0, 2025-08-29 14:41:54.643
42.0, 489.7810380971059, 363.1910344469361, 290.997875652276, 275.31834508804604, 0.0, 0.04800000227987766, 0.9760000463575125, 0.0, 0.0, 0.0, 0.0, 0.0, 1.7564893146433473E9, 0.0, 2025-08-29 14:41:54.643
43.0, 581.0570364156738, 411.11411247914657, 206.07970725838095, 157.91540567902848, 0.0, 0.04800000227987766, 0.9760000463575125, 0.0, 0.0, 0.0, 0.0, 0.0, 1.7564893146569655E9, 0.0, 2025-08-29 14:41:54.656
43.0, 435.0962209450081, 357.62232341291383, 276.6852785218507, 251.60363946901634, 0.0, 0.04800000227987766, 0.9760000463575125, 0.0, 0.0, 0.0, 0.0, 0.0, 1.7564893146569655E9, 0.0, 2025-08-29 14:41:54.656
44.0, 434.63247335050255, 347.453535433393, 313.0819848906249, 322.4971830290742, 0.0, 0.04800000227987766, 0.9760000463575125, 0.0, 0.0, 0.0, 0.0, 0.0, 1.756489314672629E9, 0.0, 2025-08-29 14:41:54.672
44.0, 625.8124191854149, 450.87672880804166, 263.99579797219485, 186.4022236415185, 0.0, 0.04800000227987766, 0.9760000463575125, 0.0, 0.0, 0.0, 0.0, 0.0, 1.756489314672629E9, 0.0, 2025-08-29 14:41:54.672
45.0, 497.84800230152905, 388.061369152274, 237.46120778657496, 188.6686030146666, 0.0, 0.04800000227987766, 0.9760000463575125, 0.0, 0.0, 0.0, 0.0, 0.0, 1.756489314673359E9, 0.0, 2025-08-29 14:41:54.673
45.0, 401.72135374043137, 337.8756516468711, 371.9891490926966, 365.2965981219895, 0.0, 0.04800000227987766, 0.9760000463575125, 0.0, 0.0, 0.0, 0.0, 0.0, 1.756489314673359E9, 0.0, 2025-08-29 14:41:54.673
46.0, 594.5767747554928, 429.1179908658378, 350.54830264672637, 314.1946051274426, 0.0, 0.04800000227987766, 0.9760000463575125, 0.0, 0.0, 0.0, 0.0, 0.0, 1.75648931468697E9, 0.0, 2025-08-29 14:41:54.686
46.0, 558.0977905876935, 406.97030332824215, 287.18691759742796, 267.97692147502676, 0.0, 0.04800000227987766, 0.9760000463575125, 0.0, 0.0, 0.0, 0.0, 0.0, 1.75648931468697E9, 0.0, 2025-08-29 14:41:54.686
47.0, 420.2001994214952, 361.4819001671858, 435.3467942420393, 448.98433943046257, 0.0, 0.04800000227987766, 0.9760000463575125, 0.0, 0.0, 0.0, 0.0, 0.0, 1.7564893147190194E9, 0.0, 2025-08-29 14:41:54.719
47.0, 532.7113496884704, 413.8554591466673, 433.3272482659668, 428.80383926955983, 0.0, 0.04800000227987766, 0.9760000463575125, 0.0, 0.0, 0.0, 0.0, 0.0, 1.7564893147190194E9, 0.0, 2025-08-29 14:41:54.719
48.0, 601.5853472724557, 433.64700971217826, 333.9431468434632, 277.0087798680179, 0.0, 0.04800000227987766, 0.9760000463575125, 0.0, 0.0, 0.0, 0.0, 0.0, 1.7564893147197368E9, 0.0, 2025-08-29 14:41:54.719
48.0, 441.03518207464367, 374.6126889116131, 411.5198916243389, 418.3732582931407, 0.0, 0.04800000227987766, 0.9760000463575125, 0.0, 0.0, 0.0, 0.0, 0.0, 1.7564893147197368E9, 0.0, 2025-08-29 14:41:54.719
49.0, 475.87235016189516, 393.9143125829287, 491.29195767920464, 524.4517806363292, 0.0, 0.04800000227987766, 0.9760000463575125, 0.0, 0.0, 0.0, 0.0, 0.0, 1.7564893147204924E9, 0.0, 2025-08-29 14:41:54.720
49.0, 622.6148047233, 446.7890181564726, 381.1107650846243, 339.3304727296345, 0.0, 0.04800000227987766, 0.9760000463575125, 0.0, 0.0, 0.0, 0.0, 0.0, 1.7564893147204924E9, 0.0, 2025-08-29 14:41:54.720
50.0, 519.6366594433784, 404.6104264562018, 390.557752372697, 377.36899517895654, 0.0, 0.04800000227987766, 0.9760000463575125, 0.0, 0.0, 0.0, 0.0, 0.0, 1.7564893147212493E9, 0.0, 2025-08-29 14:41:54.721
50.0, 415.5702032763511, 352.6669559716247, 472.1100108064711, 512.8356513739564, 0.0, 0.04800000227987766, 0.9760000463575125, 0.0, 0.0, 0.0, 0.0, 0.0, 1.7564893147212493E9, 0.0, 2025-08-29 14:41:54.721
51.0, 591.655912890099, 427.13584388932213, 402.9630005257204, 382.9077870133333, 0.0, 0.04800000227987766, 0.9760000463575125, 0.0, 0.0, 0.0, 0.0, 0.0, 1.7564893147319665E9, 0.0, 2025-08-29 14:41:54.731
51.0, 586.7491641482338, 434.1855553057976, 334.2385989399627, 301.3031699801795, 0.0, 0.04800000227987766, 0.9760000463575125, 0.0, 0.0, 0.0, 0.0, 0.0, 1.7564893147319665E9, 0.0, 2025-08-29 14:41:54.731
52.0, 412.55210401210934, 353.7403072589077, 425.5445164581761, 445.3454167735763, 0.0, 0.04800000227987766, 0.9760000463575125, 0.0, 0.0, 0.0, 0.0, 0.0, 1.7564893147469745E9, 0.0, 2025-08-29 14:41:54.746
52.0, 539.7311419053003, 413.30569385318086, 412.8924349080771, 408.45504361065105, 0.0, 0.04800000227987766, 0.9760000463575125, 0.0, 0.0, 0.0, 0.0, 0.0, 1.7564893147469745E9, 0.0, 2025-08-29 14:41:54.746
53.0, 616.5150278955698, 441.36242332076654, 303.395644005388, 268.0255401744507, 0.0, 0.04800000227987766, 0.9760000463575125, 0.0, 0.0, 0.0, 0.0, 0.0, 1.7564893147625935E9, 0.0, 2025-08-29 14:41:54.762
53.0, 444.33377383556217, 367.62655579438433, 365.1638316735625, 344.4391760691069, 0.0, 0.04800000227987766, 0.9760000463575125, 0.0, 0.0, 0.0, 0.0, 0.0, 1.7564893147625935E9, 0.0, 2025-08-29 14:41:54.762
54.0, 445.63151912018657, 358.994866696652, 395.4944203142077, 389.15341993933544, 0.0, 0.04800000227987766, 0.9760000463575125, 0.0, 0.0, 0.0, 0.0, 0.0, 1.756489314763321E9, 0.0, 2025-08-29 14:41:54.763
54.0, 617.9922883780673, 433.8975830092095, 293.23807572573423, 246.34160023136064, 0.0, 0.04800000227987766, 0.9760000463575125, 0.0, 0.0, 0.0, 0.0, 0.0, 1.756489314763321E9, 0.0, 2025-08-29 14:41:54.763
55.0, 503.6111881332472, 396.93241184717044, 286.18462440930307, 255.78484761947766, 0.0, 0.04800000227987766, 0.9760000463575125, 0.0, 0.0, 0.0, 0.0, 0.0, 1.7564893147769663E9, 0.0, 2025-08-29 14:41:54.776
55.0, 410.0052321422845, 354.0282795554958, 411.2431390276179, 412.3894183640368, 0.0, 0.04800000227987766, 0.9760000463575125, 0.0, 0.0, 0.0, 0.0, 0.0, 1.7564893147769663E9, 0.0, 2025-08-29 14:41:54.776
56.0, 592.5908878790215, 434.5296261017211, 345.8023696029559, 299.126548205968, 0.0, 0.04800000227987766, 0.9760000463575125, 0.0, 0.0, 0.0, 0.0, 0.0, 1.7564893147925909E9, 0.0, 2025-08-29 14:41:54.792
56.0, 544.6042315475643, 394.5687950751744, 257.13682145345956, 202.44265455147251, 0.0, 0.04800000227987766, 0.9760000463575125, 0.0, 0.0, 0.0, 0.0, 0.0, 1.7564893147925909E9, 0.0, 2025-08-29 14:41:54.792
57.0, 418.1320347459987, 365.6818078174256, 398.02259268425405, 392.5679485988803, 0.0, 0.04800000227987766, 0.9760000463575125, 0.0, 0.0, 0.0, 0.0, 0.0, 1.7564893147933376E9, 0.0, 2025-08-29 14:41:54.793
57.0, 532.124185395427, 403.3986988705583, 371.1102726031095, 337.16133075533435, 0.0, 0.04800000227987766, 0.9760000463575125, 0.0, 0.0, 0.0, 0.0, 0.0, 1.7564893147933376E9, 0.0, 2025-08-29 14:41:54.793
58.0, 605.1569517301396, 435.5506187896244, 265.85452825017273, 209.69058066559955, 0.0, 0.04800000227987766, 0.9760000463575125, 0.0, 0.0, 0.0, 0.0, 0.0, 1.7564893148070984E9, 0.0, 2025-08-29 14:41:54.807
58.0, 455.9873020974919, 387.78087665559724, 361.6857247147709, 335.8486258708872, 0.0, 0.04800000227987766, 0.9760000463575125, 0.0, 0.0, 0.0, 0.0, 0.0, 1.7564893148070984E9, 0.0, 2025-08-29 14:41:54.807
59.0, 467.0723655661568, 382.17850652197376, 419.55693662911654, 409.1057862029411, 0.0, 0.04800000227987766, 0.9760000463575125, 0.0, 0.0, 0.0, 0.0, 0.0, 1.7564893148225932E9, 0.0, 2025-08-29 14:41:54.822
59.0, 651.6177288796753, 461.89073417754844, 330.9362672790885, 273.12302381405607, 0.0, 0.04800000227987766, 0.9760000463575125, 0.0, 0.0, 0.0, 0.0, 0.0, 1.7564893148225932E9, 0.0, 2025-08-29 14:41:54.822
60.0, 515.01040319819, 405.70621714321896, 310.71836811862886, 269.5551592563279, 0.0, 0.04800000227987766, 0.9760000463575125, 0.0, 0.0, 0.0, 0.0, 0.0, 1.7564893148233318E9, 0.0, 2025-08-29 14:41:54.823
60.0, 382.5842856671661, 322.4672638294287, 364.52056888118386, 375.0053784069605, 0.0, 0.04800000227987766, 0.9760000463575125, 0.0, 0.0, 0.0, 0.0, 0.0, 1.7564893148233318E9, 0.0, 2025-08-29 14:41:54.823
61.0, 623.9649086073041, 453.36002237861976, 378.97528220992535, 334.71543618431315, 0.0, 0.04800000227987766, 0.9760000463575125, 0.0, 0.0, 0.0, 0.0, 0.0, 1.7564893148533142E9, 0.0, 2025-08-29 14:41:54.853
61.0, 562.6305493339896, 408.79163460666314, 286.82788720168173, 238.92537861922756, 0.0, 0.04800000227987766, 0.9760000463575125, 0.0, 0.0, 0.0, 0.0, 0.0, 1.7564893148533142E9, 0.0, 2025-08-29 14:41:54.853
62.0, 385.78937992919236, 330.5379679338075, 366.15116526186466, 359.16690209461376, 0.0, 0.04800000227987766, 0.9760000463575125, 0.0, 0.0, 0.0, 0.0, 0.0, 1.7564893148540466E9, 0.0, 2025-08-29 14:41:54.854
62.0, 547.9103031083941, 421.7092490536161, 404.5262787071988, 372.6679409346543, 0.0, 0.04800000227987766, 0.9760000463575125, 0.0, 0.0, 0.0, 0.0, 0.0, 1.7564893148540466E9, 0.0, 2025-08-29 14:41:54.854
63.0, 628.2695334563032, 448.0194452418946, 308.5828852439299, 246.59591342834756, 0.0, 0.04800000227987766, 0.9760000463575125, 0.0, 0.0, 0.0, 0.0, 0.0, 1.7564893148548095E9, 0.0, 2025-08-29 14:41:54.854
63.0, 458.1527041718364, 372.8698955322616, 353.2485104147345, 341.50335460389033, 0.0, 0.04800000227987766, 0.9760000463575125, 0.0, 0.0, 0.0, 0.0, 0.0, 1.7564893148548095E9, 0.0, 2025-08-29 14:41:54.854
64.0, 454.61101891379803, 359.4810536908917, 382.71518216561526, 353.5533122611232, 0.0, 0.04800000227987766, 0.9760000463575125, 0.0, 0.0, 0.0, 0.0, 0.0, 1.7564893148668976E9, 0.0, 2025-08-29 14:41:54.866
64.0, 625.9582752836868, 436.76982617517933, 320.1990145063028, 261.8883643471636, 0.0, 0.04800000227987766, 0.9760000463575125, 0.0, 0.0, 0.0, 0.0, 0.0, 1.7564893148668976E9, 0.0, 2025-08-29 14:41:54.866
65.0, 492.7168595623225, 380.5366904414259, 323.01889907289296, 291.39617499755695, 0.0, 0.04800000227987766, 0.9760000463575125, 0.0, 0.0, 0.0, 0.0, 0.0, 1.7564893148826551E9, 0.0, 2025-08-29 14:41:54.882
65.0, 402.42445493210107, 335.7027697726153, 425.5445164581761, 433.0374060194008, 0.0, 0.04800000227987766, 0.9760000463575125, 0.0, 0.0, 0.0, 0.0, 0.0, 1.7564893148826551E9, 0.0, 2025-08-29 14:41:54.882
66.0, 617.9810686782002, 448.29245793865994, 371.5852398974821, 339.9662557221018, 0.0, 0.04800000227987766, 0.9760000463575125, 0.0, 0.0, 0.0, 0.0, 0.0, 1.7564893148833916E9, 0.0, 2025-08-29 14:41:54.883
66.0, 579.9799452284351, 415.89744452247396, 302.2961134184152, 255.98306231712922, 0.0, 0.04800000227987766, 0.9760000463575125, 0.0, 0.0, 0.0, 0.0, 0.0, 1.7564893148833916E9, 0.0, 2025-08-29 14:41:54.883
67.0, 413.5955360997468, 345.13479746086523, 381.3949974812567, 368.50543228397146, 0.0, 0.04800000227987766, 0.9760000463575125, 0.0, 0.0, 0.0, 0.0, 0.0, 1.7564893148968923E9, 0.0, 2025-08-29 14:41:54.896
67.0, 534.7346355644986, 394.96148457052186, 390.19872197695076, 378.6368212639354, 0.0, 0.04800000227987766, 0.9760000463575125, 0.0, 0.0, 0.0, 0.0, 0.0, 1.7564893148968923E9, 0.0, 2025-08-29 14:41:54.896
68.0, 653.9813456516713, 464.88639404205605, 327.6301957182586, 265.4786683046259, 0.0, 0.04800000227987766, 0.9760000463575125, 0.0, 0.0, 0.0, 0.0, 0.0, 1.7564893149126427E9, 0.0, 2025-08-29 14:41:54.912
68.0, 456.97089578583837, 376.84166928520426, 372.60623258538544, 346.7766135414131, 0.0, 0.04800000227987766, 0.9760000463575125, 0.0, 0.0, 0.0, 0.0, 0.0, 1.7564893149126427E9, 0.0, 2025-08-29 14:41:54.912
69.0, 474.05101888347417, 378.2254322688095, 420.10296202264726, 411.8172136708163, 0.0, 0.04800000227987766, 0.9760000463575125, 0.0, 0.0, 0.0, 0.0, 0.0, 1.7564893149133725E9, 0.0, 2025-08-29 14:41:54.913
69.0, 643.7751586725935, 447.65293504623696, 317.2183142416179, 255.63525162125006, 0.0, 0.04800000227987766, 0.9760000463575125, 0.0, 0.0, 0.0, 0.0, 0.0, 1.7564893149133725E9, 0.0, 2025-08-29 14:41:54.913
70.0, 500.14056097436696, 381.5352437295951, 297.2584681781009, 259.07969948044047, 0.0, 0.04800000227987766, 0.9760000463575125, 0.0, 0.0, 0.0, 0.0, 0.0, 1.7564893149269674E9, 0.0, 2025-08-29 14:41:54.926
70.0, 409.32457035034895, 348.0070406268351, 407.92210786696523, 416.1367981196381, 0.0, 0.04800000227987766, 0.9760000463575125, 0.0, 0.0, 0.0, 0.0, 0.0, 1.7564893149269674E9, 0.0, 2025-08-29 14:41:54.926
71.0, 619.2526346631348, 451.7481254977174, 358.8060017488897, 319.3481872663833, 0.0, 0.04800000227987766, 0.9760000463575125, 0.0, 0.0, 0.0, 0.0, 0.0, 1.75648931494262E9, 0.0, 2025-08-29 14:41:54.942
71.0, 584.1574134789407, 432.5998377245851, 304.12118459679186, 237.55283533548936, 0.0, 0.04800000227987766, 0.9760000463575125, 0.0, 0.0, 0.0, 0.0, 0.0, 1.75648931494262E9, 0.0, 2025-08-29 14:41:54.942
72.0, 389.1029312899336, 334.34892598865554, 371.0018155043945, 352.09849117835984, 0.0, 0.04800000227987766, 0.9760000463575125, 0.0, 0.0, 0.0, 0.0, 0.0, 1.7564893149433455E9, 0.0, 2025-08-29 14:41:54.943
72.0, 521.9591373158619, 388.1735661509447, 372.74834878370166, 333.70940309623256, 0.0, 0.04800000227987766, 0.9760000463575125, 0.0, 0.0, 0.0, 0.0, 0.0, 1.7564893149433455E9, 0.0, 2025-08-29 14:41:54.943
73.0, 619.3797912616283, 432.32308512786403, 274.2730430504307, 202.8577834465541, 0.0, 0.04800000227987766, 0.9760000463575125, 0.0, 0.0, 0.0, 0.0, 0.0, 1.756489314956968E9, 0.0, 2025-08-29 14:41:54.956
73.0, 436.21819093171507, 362.79460505163297, 339.77739077433944, 303.0235239597969, 0.0, 0.04800000227987766, 0.9760000463575125, 0.0, 0.0, 0.0, 0.0, 0.0, 1.756489314956968E9, 0.0, 2025-08-29 14:41:54.956
74.0, 463.9158900035545, 369.5189451719634, 395.2962056165561, 376.4265403901227, 0.0, 0.04800000227987766, 0.9760000463575125, 0.0, 0.0, 0.0, 0.0, 0.0, 1.7564893149726305E9, 0.0, 2025-08-29 14:41:54.972
74.0, 664.501684227027, 476.2033313079737, 325.62560934200883, 253.9934355407022, 0.0, 0.04800000227987766, 0.9760000463575125, 0.0, 0.0, 0.0, 0.0, 0.0, 1.7564893149726305E9, 0.0, 2025-08-29 14:41:54.972
75.0, 501.2363516613841, 392.4707112000324, 284.7185836266726, 242.4633239773102, 0.0, 0.04800000227987766, 0.9760000463575125, 0.0, 0.0, 0.0, 0.0, 0.0, 1.7564893149733613E9, 0.0, 2025-08-29 14:41:54.973
75.0, 397.80193858686835, 343.5789990792982, 373.08119987975806, 362.21118065854535, 0.0, 0.04800000227987766, 0.9760000463575125, 0.0, 0.0, 0.0, 0.0, 0.0, 1.7564893149733613E9, 0.0, 2025-08-29 14:41:54.973
76.0, 587.3101491415873, 417.67389700142667, 311.97871440369636, 263.7807537247427, 0.0, 0.04800000227987766, 0.9760000463575125, 0.0, 0.0, 0.0, 0.0, 0.0, 1.756489314986982E9, 0.0, 2025-08-29 14:41:54.986
76.0, 569.3399298544973, 405.3658862472512, 255.83159636892378, 195.0376526392065, 0.0, 0.04800000227987766, 0.9760000463575125, 0.0, 0.0, 0.0, 0.0, 0.0, 1.756489314986982E9, 0.0, 2025-08-29 14:41:54.986
77.0, 398.65837567672133, 340.19438961939886, 352.78102292027324, 341.5482334033586, 0.0, 0.04800000227987766, 0.9760000463575125, 0.0, 0.0, 0.0, 0.0, 0.0, 1.7564893150026152E9, 0.0, 2025-08-29 14:41:55.002
77.0, 534.6486178655177, 398.26007633144036, 363.04330839868635, 344.19982247194275, 0.0, 0.04800000227987766, 0.9760000463575125, 0.0, 0.0, 0.0, 0.0, 0.0, 1.7564893150026152E9, 0.0, 2025-08-29 14:41:55.002
78.0, 638.0905107399449, 451.5573905999772, 269.18303921073675, 211.72508624149486, 0.0, 0.04800000227987766, 0.9760000463575125, 0.0, 0.0, 0.0, 0.0, 0.0, 1.7564893150033555E9, 0.0, 2025-08-29 14:41:55.003
78.0, 446.0541278151795, 368.06412408920005, 325.4573138440028, 302.22318536927924, 0.0, 0.04800000227987766, 0.9760000463575125, 0.0, 0.0, 0.0, 0.0, 0.0, 1.7564893150033555E9, 0.0, 2025-08-29 14:41:55.003
79.0, 442.321707659401, 346.0697724497877, 364.1390990857035, 352.9698878680356, 0.0, 0.04800000227987766, 0.9760000463575125, 0.0, 0.0, 0.0, 0.0, 0.0, 1.7564893150169885E9, 0.0, 2025-08-29 14:41:55.016
79.0, 623.8377520088106, 431.08891814248636, 266.1948591461405, 202.4463944514282, 0.0, 0.04800000227987766, 0.9760000463575125, 0.0, 0.0, 0.0, 0.0, 0.0, 1.7564893150169885E9, 0.0, 2025-08-29 14:41:55.016
80.0, 489.06671720556915, 382.47395861847326, 275.2379372389987, 222.91860680887476, 0.0, 0.04800000227987766, 0.9760000463575125, 0.0, 0.0, 0.0, 0.0, 0.0, 1.75648931503262E9, 0.0, 2025-08-29 14:41:55.032
80.0, 402.9293414261192, 336.82473975932226, 372.38557848799974, 354.966994444374, 0.0, 0.04800000227987766, 0.9760000463575125, 0.0, 0.0, 0.0, 0.0, 0.0, 1.75648931503262E9, 0.0, 2025-08-29 14:41:55.032
81.0, 605.609479624778, 430.0716653545387, 333.2325658518821, 274.1215771022253, 0.0, 0.04800000227987766, 0.9760000463575125, 0.0, 0.0, 0.0, 0.0, 0.0, 1.7564893150333467E9, 0.0, 2025-08-29 14:41:55.033
81.0, 580.5858090212569, 427.93992237979546, 264.88589416164905, 198.12307010265067, 0.0, 0.04800000227987766, 0.9760000463575125, 0.0, 0.0, 0.0, 0.0, 0.0, 1.7564893150333467E9, 0.0, 2025-08-29 14:41:55.033
82.0, 397.31575159262866, 341.5968521027826, 347.4591452833265, 331.846932918299, 0.0, 0.04800000227987766, 0.9760000463575125, 0.0, 0.0, 0.0, 0.0, 0.0, 1.756489315046966E9, 0.0, 2025-08-29 14:41:55.046
82.0, 535.4639160558581, 406.3158208359964, 365.41814487054944, 329.71518994355574, 0.0, 0.04800000227987766, 0.9760000463575125, 0.0, 0.0, 0.0, 0.0, 0.0, 1.756489315046966E9, 0.0, 2025-08-29 14:41:55.046
83.0, 599.9435311919078, 411.3609458762221, 233.05186573881656, 157.7994687804021, 0.0, 0.04800000227987766, 0.9760000463575125, 0.0, 0.0, 0.0, 0.0, 0.0, 1.7564893150626166E9, 0.0, 2025-08-29 14:41:55.062
83.0, 416.77071116212755, 346.86263124039397, 297.2061095787212, 269.5102804568596, 0.0, 0.04800000227987766, 0.9760000463575125, 0.0, 0.0, 0.0, 0.0, 0.0, 1.7564893150626166E9, 0.0, 2025-08-29 14:41:55.062
84.0, 435.40289274137467, 341.447256104555, 348.48387787118554, 329.7413692432456, 0.0, 0.04800000227987766, 0.9760000463575125, 0.0, 0.0, 0.0, 0.0, 0.0, 1.7564893150633638E9, 0.0, 2025-08-29 14:41:55.063
84.0, 644.2688254667446, 446.50852565979585, 287.5534277930856, 208.94634057441726, 0.0, 0.04800000227987766, 0.9760000463575125, 0.0, 0.0, 0.0, 0.0, 0.0, 1.7564893150633638E9, 0.0, 2025-08-29 14:41:55.063
85.0, 518.761522853747, 408.7018770077266, 300.85999183543026, 242.6540588750504, 0.0, 0.04800000227987766, 0.9760000463575125, 0.0, 0.0, 0.0, 0.0, 0.0, 1.7564893150769663E9, 0.0, 2025-08-29 14:41:55.076
85.0, 385.8118193289265, 323.3274408192374, 356.1282333806157, 343.61265817889944, 0.0, 0.04800000227987766, 0.9760000463575125, 0.0, 0.0, 0.0, 0.0, 0.0, 1.7564893150769663E9, 0.0, 2025-08-29 14:41:55.076
86.0, 600.5942737841979, 430.45687504997477, 311.54488600883633, 252.88642515381798, 0.0, 0.04800000227987766, 0.9760000463575125, 0.0, 0.0, 0.0, 0.0, 0.0, 1.7564893150926178E9, 0.0, 2025-08-29 14:41:55.092
86.0, 564.8296105079353, 409.68173079611734, 241.006632944569, 168.49558265367523, 0.0, 0.04800000227987766, 0.9760000463575125, 0.0, 0.0, 0.0, 0.0, 0.0, 1.7564893150926178E9, 0.0, 2025-08-29 14:41:55.092
87.0, 392.23696745280176, 340.45244271634147, 338.0832160944119, 320.1747051565908, 0.0, 0.04800000227987766, 0.9760000463575125, 0.0, 0.0, 0.0, 0.0, 0.0, 1.7564893150933516E9, 0.0, 2025-08-29 14:41:55.093
87.0, 548.1085178060457, 421.2268019593321, 382.56558616738766, 339.1846166313626, 0.0, 0.04800000227987766, 0.9760000463575125, 0.0, 0.0, 0.0, 0.0, 0.0, 1.7564893150933516E9, 0.0, 2025-08-29 14:41:55.093
88.0, 628.9726346479729, 450.28956451499835, 263.4946513781324, 191.82507857726887, 0.0, 0.04800000227987766, 0.9760000463575125, 0.0, 0.0, 0.0, 0.0, 0.0, 1.7564893151069667E9, 0.0, 2025-08-29 14:41:55.106
88.0, 455.79282729979604, 378.3787681669928, 336.9762057075277, 293.72987256990746, 0.0, 0.04800000227987766, 0.9760000463575125, 0.0, 0.0, 0.0, 0.0, 0.0, 1.7564893151069667E9, 0.0, 2025-08-29 14:41:55.106
89.0, 472.5550589011982, 378.8574753613211, 366.5737739568576, 358.9275484974496, 0.0, 0.04800000227987766, 0.9760000463575125, 0.0, 0.0, 0.0, 0.0, 0.0, 1.7564893151390405E9, 0.0, 2025-08-29 14:41:55.139
89.0, 625.4795680893585, 427.27796008763835, 271.4980372833088, 197.84631750592962, 0.0, 0.04800000227987766, 0.9760000463575125, 0.0, 0.0, 0.0, 0.0, 0.0, 1.7564893151390405E9, 0.0, 2025-08-29 14:41:55.139
90.0, 500.9072404652834, 383.0985219110735, 300.72161553706974, 245.34304694319144, 0.0, 0.04800000227987766, 0.9760000463575125, 0.0, 0.0, 0.0, 0.0, 0.0, 1.756489315139742E9, 0.0, 2025-08-29 14:41:55.139
90.0, 407.43218097276986, 346.83271204074845, 395.7375138113275, 370.7456323574297, 0.0, 0.04800000227987766, 0.9760000463575125, 0.0, 0.0, 0.0, 0.0, 0.0, 1.756489315139742E9, 0.0, 2025-08-29 14:41:55.139
91.0, 600.6578520834446, 433.64326981222257, 355.00252349395305, 293.10904917726293, 0.0, 0.04800000227987766, 0.9760000463575125, 0.0, 0.0, 0.0, 0.0, 0.0, 1.756489315140488E9, 0.0, 2025-08-29 14:41:55.140
91.0, 578.9888717401773, 417.2512883064337, 296.8171599833295, 212.32347023440525, 0.0, 0.04800000227987766, 0.9760000463575125, 0.0, 0.0, 0.0, 0.0, 0.0, 1.756489315140488E9, 0.0, 2025-08-29 14:41:55.140
92.0, 411.7442856216803, 350.624970595818, 396.938021697104, 373.6477947230451, 0.0, 0.04800000227987766, 0.9760000463575125, 0.0, 0.0, 0.0, 0.0, 0.0, 1.7564893151412349E9, 0.0, 2025-08-29 14:41:55.141
92.0, 534.5289410669357, 400.3880794062279, 392.9288489446044, 352.4388220743276, 0.0, 0.04800000227987766, 0.9760000463575125, 0.0, 0.0, 0.0, 0.0, 0.0, 1.7564893151412349E9, 0.0, 2025-08-29 14:41:55.141
93.0, 617.464962484315, 428.6766826710664, 297.8531122710556, 213.91292771557346, 0.0, 0.04800000227987766, 0.9760000463575125, 0.0, 0.0, 0.0, 0.0, 0.0, 1.756489315151991E9, 0.0, 2025-08-29 14:41:55.151
93.0, 433.15147296804935, 353.7066481593065, 343.0984219349921, 296.13836814137176, 0.0, 0.04800000227987766, 0.9760000463575125, 0.0, 0.0, 0.0, 0.0, 0.0, 1.756489315151991E9, 0.0, 2025-08-29 14:41:55.151
94.0, 447.5014690980315, 350.24724070029333, 390.1014845781028, 352.8128120698966, 0.0, 0.04800000227987766, 0.9760000463575125, 0.0, 0.0, 0.0, 0.0, 0.0, 1.7564893151669784E9, 0.0, 2025-08-29 14:41:55.166
94.0, 623.94246920757, 423.036913537886, 288.320107284002, 211.07060374924913, 0.0, 0.04800000227987766, 0.9760000463575125, 0.0, 0.0, 0.0, 0.0, 0.0, 1.7564893151669784E9, 0.0, 2025-08-29 14:41:55.166
95.0, 503.88794072996825, 381.0041779358871, 285.97519001178443, 220.39791423873976, 0.0, 0.04800000227987766, 0.9760000463575125, 0.0, 0.0, 0.0, 0.0, 0.0, 1.7564893151826165E9, 0.0, 2025-08-29 14:41:55.182
95.0, 413.33000320289284, 344.3381987703033, 385.516367232427, 354.0432391553186, 0.0, 0.04800000227987766, 0.9760000463575125, 0.0, 0.0, 0.0, 0.0, 0.0, 1.7564893151826165E9, 0.0, 2025-08-29 14:41:55.182
96.0, 610.265655069612, 430.17264265334234, 316.8443242460489, 235.29767566220835, 0.0, 0.04800000227987766, 0.9760000463575125, 0.0, 0.0, 0.0, 0.0, 0.0, 1.7564893151833403E9, 0.0, 2025-08-29 14:41:55.183
96.0, 559.8293642671779, 392.0144434054382, 212.08972648717463, 123.14181589102373, 0.0, 0.04800000227987766, 0.9760000463575125, 0.0, 0.0, 0.0, 0.0, 0.0, 1.7564893151833403E9, 0.0, 2025-08-29 14:41:55.183
97.0, 383.4706419566646, 321.2069175443612, 300.658037237823, 267.01576718641445, 0.0, 0.04800000227987766, 0.9760000463575125, 0.0, 0.0, 0.0, 0.0, 0.0, 1.7564893151969707E9, 0.0, 2025-08-29 14:41:55.196
97.0, 539.4431696087122, 402.71429717866704, 329.0550976013765, 261.45827585225925, 0.0, 0.04800000227987766, 0.9760000463575125, 0.0, 0.0, 0.0, 0.0, 0.0, 1.7564893151969707E9, 0.0, 2025-08-29 14:41:55.196
98.0, 621.9004838317633, 428.97587466752157, 207.3550131432712, 106.37584438966587, 0.0, 0.04800000227987766, 0.9760000463575125, 0.0, 0.0, 0.0, 0.0, 0.0, 1.7564893152126129E9, 0.0, 2025-08-29 14:41:55.212
98.0, 423.52123058214784, 344.8505650642328, 247.3420234695077, 191.33889158302918, 0.0, 0.04800000227987766, 0.9760000463575125, 0.0, 0.0, 0.0, 0.0, 0.0, 1.7564893152126129E9, 0.0, 2025-08-29 14:41:55.212
99.0, 430.74671729654074, 331.6113192210905, 306.69049586635083, 260.85989185934886, 0.0, 0.04800000227987766, 0.9760000463575125, 0.0, 0.0, 0.0, 0.0, 0.0, 1.7564893152133262E9, 0.0, 2025-08-29 14:41:55.213
99.0, 630.6705492278561, 423.90831022756174, 231.76160025410354, 132.69352037785575, 0.0, 0.04800000227987766, 0.9760000463575125, 0.0, 0.0, 0.0, 0.0, 0.0, 1.7564893152133262E9, 0.0, 2025-08-29 14:41:55.213
100.0, 512.6093874266371, 394.81936837220564, 233.90830282866955, 156.71489779325202, 0.0, 0.04800000227987766, 0.9760000463575125, 0.0, 0.0, 0.0, 0.0, 0.0, 1.7564893152276409E9, 0.0, 2025-08-29 14:41:55.227
100.0, 405.25181929860264, 337.71857584873214, 315.50917996186763, 280.5317656262778, 0.0, 0.04800000227987766, 0.9760000463575125, 0.0, 0.0, 0.0, 0.0, 0.0, 1.7564893152276409E9, 0.0, 2025-08-29 14:41:55.227
0.0, 615.2228924608789, 428.25968382600695, 284.37077293079346, 209.90375496307388, 0.0, 0.04800000227987766, 0.9760000463575125, 0.0, 0.0, 0.0, 0.0, 0.0, 1.7564893152283666E9, 0.0, 2025-08-29 14:41:55.228
1.0, 588.0712187825702, 420.8359824139625, 212.45249678287655, 121.60097710927948, 0.0, 0.04800000227987766, 0.9760000463575125, 0.0, 0.0, 0.0, 0.0, 0.0, 1.7564893152419944E9, 0.0, 2025-08-29 14:41:55.241
1.0, 414.7717346358113, 350.7240779446438, 306.87375096417964, 266.9671484869905, 0.0, 0.04800000227987766, 0.9760000463575125, 0.0, 0.0, 0.0, 0.0, 0.0, 1.7564893152419944E9, 0.0, 2025-08-29 14:41:55.241
2.0, 535.7350588026457, 388.27267349977046, 305.1047782851383, 244.56514775240794, 0.0, 0.04800000227987766, 0.9760000463575125, 0.0, 0.0, 0.0, 0.0, 0.0, 1.7564893152739725E9, 0.0, 2025-08-29 14:41:55.273
2.0, 642.6513187359087, 434.1051474567503, 210.89669840130955, 110.45233534136787, 0.0, 0.04800000227987766, 0.9760000463575125, 0.0, 0.0, 0.0, 0.0, 0.0, 1.7564893152739725E9, 0.0, 2025-08-29 14:41:55.273
3.0, 438.28448565723374, 349.81528225541115, 255.49874527286738, 200.28473227703944, 0.0, 0.04800000227987766, 0.9760000463575125, 0.0, 0.0, 0.0, 0.0, 0.0, 1.7564893152746975E9, 0.0, 2025-08-29 14:41:55.274
3.0, 451.9014613959007, 344.29145002085716, 315.46430116239935, 275.1425697901286, 0.0, 0.04800000227987766, 0.9760000463575125, 0.0, 0.0, 0.0, 0.0, 0.0, 1.7564893152746975E9, 0.0, 2025-08-29 14:41:55.274
4.0, 626.5286100269295, 414.77734448574483, 233.38097693491727, 153.15825293539092, 0.0, 0.04800000227987766, 0.9760000463575125, 0.0, 0.0, 0.0, 0.0, 0.0, 1.756489315275466E9, 0.0, 2025-08-29 14:41:55.275
4.0, 489.30046095279977, 362.86379320081323, 211.5848399931565, 153.37516713282093, 0.0, 0.04800000227987766, 0.9760000463575125, 0.0, 0.0, 0.0, 0.0, 0.0, 1.756489315275466E9, 0.0, 2025-08-29 14:41:55.275
5.0, 406.30086123617366, 338.70403948705643, 333.5579371480271, 298.91711380844936, 0.0, 0.04800000227987766, 0.9760000463575125, 0.0, 0.0, 0.0, 0.0, 0.0, 1.7564893152762103E9, 0.0, 2025-08-29 14:41:55.276
5.0, 613.1098489859141, 430.11093430407345, 291.00161555223167, 219.58635594835505, 0.0, 0.04800000227987766, 0.9760000463575125, 0.0, 0.0, 0.0, 0.0, 0.0, 1.7564893152762103E9, 0.0, 2025-08-29 14:41:55.276
6.0, 557.0861476496793, 387.1095646135509, 188.33014206867665, 110.60193133959547, 0.0, 0.04800000227987766, 0.9760000463575125, 0.0, 0.0, 0.0, 0.0, 0.0, 1.7564893152869644E9, 0.0, 2025-08-29 14:41:55.286
6.0, 396.2816692548804, 331.43741387315094, 299.5921657504514, 265.8863173997961, 0.0, 0.04800000227987766, 0.9760000463575125, 0.0, 0.0, 0.0, 0.0, 0.0, 1.7564893152869644E9, 0.0, 2025-08-29 14:41:55.286
7.0, 527.8962284955196, 379.4465096043423, 299.49492835160345, 253.211796449963, 0.0, 0.04800000227987766, 0.9760000463575125, 0.0, 0.0, 0.0, 0.0, 0.0, 1.756489315301968E9, 0.0, 2025-08-29 14:41:55.301
7.0, 628.3013226059265, 425.37622096017003, 203.25608279183507, 114.74574049049988, 0.0, 0.04800000227987766, 0.9760000463575125, 0.0, 0.0, 0.0, 0.0, 0.0, 1.756489315301968E9, 0.0, 2025-08-29 14:41:55.301
8.0, 441.1866480228491, 349.96487825363874, 269.44483220763505, 231.43061910802498, 0.0, 0.04800000227987766, 0.9760000463575125, 0.0, 0.0, 0.0, 0.0, 0.0, 1.7564893153176217E9, 0.0, 2025-08-29 14:41:55.317
8.0, 460.39851409522817, 353.8805535072461, 337.0584835065529, 314.3853400251828, 0.0, 0.04800000227987766, 0.9760000463575125, 0.0, 0.0, 0.0, 0.0, 0.0, 1.7564893153176217E9, 0.0, 2025-08-29 14:41:55.317
9.0, 618.188633125741, 414.1565210931003, 214.9881489528343, 158.19589817570522, 0.0, 0.04800000227987766, 0.9760000463575125, 0.0, 0.0, 0.0, 0.0, 0.0, 1.7564893153183503E9, 0.0, 2025-08-29 14:41:55.318
9.0, 504.1890026764013, 380.23936839494854, 218.77666760794818, 177.2132894503884, 0.0, 0.04800000227987766, 0.9760000463575125, 0.0, 0.0, 0.0, 0.0, 0.0, 1.7564893153183503E9, 0.0, 2025-08-29 14:41:55.318
10.0, 388.3493414488621, 322.39059588033706, 302.38213111739606, 285.6703881653957, 0.0, 0.04800000227987766, 0.9760000463575125, 0.0, 0.0, 0.0, 0.0, 0.0, 1.7564893153319645E9, 0.0, 2025-08-29 14:41:55.331
10.0, 596.0559051879682, 408.4157746611163, 266.2659172452986, 217.11054217768833, 0.0, 0.04800000227987766, 0.9760000463575125, 0.0, 0.0, 0.0, 0.0, 0.0, 1.7564893153319645E9, 0.0, 2025-08-29 14:41:55.331
11.0, 592.6525962282903, 419.5232775295153, 217.0263944286853, 136.88968812813982, 0.0, 0.04800000227987766, 0.9760000463575125, 0.0, 0.0, 0.0, 0.0, 0.0, 1.7564893153476198E9, 0.0, 2025-08-29 14:41:55.347
11.0, 376.5985757880844, 309.27850663568825, 280.30550167895854, 260.34752556541935, 0.0, 0.04800000227987766, 0.9760000463575125, 0.0, 0.0, 0.0, 0.0, 0.0, 1.7564893153476198E9, 0.0, 2025-08-29 14:41:55.347
12.0, 520.3453704849817, 379.56618640292436, 300.6692569376901, 264.2856402187608, 0.0, 0.04800000227987766, 0.9760000463575125, 0.0, 0.0, 0.0, 0.0, 0.0, 1.7564893153483505E9, 0.0, 2025-08-29 14:41:55.348
12.0, 613.3379828832112, 424.8975137658417, 194.63935329392552, 118.08921105088666, 0.0, 0.04800000227987766, 0.9760000463575125, 0.0, 0.0, 0.0, 0.0, 0.0, 1.7564893153483505E9, 0.0, 2025-08-29 14:41:55.348
13.0, 454.44085346581414, 379.38293130509555, 259.6088953241706, 209.16325477184728, 0.0, 0.04800000227987766, 0.9760000463575125, 0.0, 0.0, 0.0, 0.0, 0.0, 1.75648931536199E9, 0.0, 2025-08-29 14:41:55.361
13.0, 458.77913741441444, 363.79128838982433, 332.14425496477634, 306.6026082173921, 0.0, 0.04800000227987766, 0.9760000463575125, 0.0, 0.0, 0.0, 0.0, 0.0, 1.75648931536199E9, 0.0, 2025-08-29 14:41:55.361
14.0, 640.6953510590829, 442.23195006046444, 276.9545513186604, 215.28173109935597, 0.0, 0.04800000227987766, 0.9760000463575125, 0.0, 0.0, 0.0, 0.0, 0.0, 1.7564893153776236E9, 0.0, 2025-08-29 14:41:55.377
14.0, 508.7853397219442, 393.5945511367172, 272.48537087161094, 229.58684842986986, 0.0, 0.04800000227987766, 0.9760000463575125, 0.0, 0.0, 0.0, 0.0, 0.0, 1.7564893153776236E9, 0.0, 2025-08-29 14:41:55.377
15.0, 395.81418176041916, 338.09817569423467, 392.9550282442942, 385.55189628200606, 0.0, 0.04800000227987766, 0.9760000463575125, 0.0, 0.0, 0.0, 0.0, 0.0, 1.7564893153783467E9, 0.0, 2025-08-29 14:41:55.378
15.0, 631.2334041711874, 454.38662491645664, 402.1215230356902, 363.20599404675886, 0.0, 0.04800000227987766, 0.9760000463575125, 0.0, 0.0, 0.0, 0.0, 0.0, 1.7564893153783467E9, 0.0, 2025-08-29 14:41:55.378
16.0, 576.1484177238308, 413.5768365999684, 303.5115809040144, 240.27548250323161, 0.0, 0.04800000227987766, 0.9760000463575125, 0.0, 0.0, 0.0, 0.0, 0.0, 1.7564893153919644E9, 0.0, 2025-08-29 14:41:55.391
16.0, 386.0455630761571, 330.9437470789999, 400.7377600520849, 405.0704341507517, 0.0, 0.04800000227987766, 0.9760000463575125, 0.0, 0.0, 0.0, 0.0, 0.0, 1.7564893153919644E9, 0.0, 2025-08-29 14:41:55.391
17.0, 541.4122269353829, 402.570311030373, 436.5136430282146, 415.5870328261517, 0.0, 0.04800000227987766, 0.9760000463575125, 0.0, 0.0, 0.0, 0.0, 0.0, 1.756489315407614E9, 0.0, 2025-08-29 14:41:55.407
17.0, 644.7419228111394, 451.86593234632164, 316.02528615575284, 268.98669446306303, 0.0, 0.04800000227987766, 0.9760000463575125, 0.0, 0.0, 0.0, 0.0, 0.0, 1.756489315407614E9, 0.0, 2025-08-29 14:41:55.407
18.0, 496.4810688677244, 419.55693662911654, 427.9866711292416, 429.38352376269177, 0.0, 0.04800000227987766, 0.9760000463575125, 0.0, 0.0, 0.0, 0.0, 0.0, 1.7564893154083445E9, 0.0, 2025-08-29 14:41:55.408
18.0, 450.3344433144666, 351.6066943341866, 440.6499723792076, 453.8611689726822, 0.0, 0.04800000227987766, 0.9760000463575125, 0.0, 0.0, 0.0, 0.0, 0.0, 1.7564893154083445E9, 0.0, 2025-08-29 14:41:55.408
19.0, 633.9485715390183, 433.37212706543505, 341.4865250540897, 316.9770906944759, 0.0, 0.04800000227987766, 0.9760000463575125, 0.0, 0.0, 0.0, 0.0, 0.0, 1.7564893154219704E9, 0.0, 2025-08-29 14:41:55.421
19.0, 520.0237390887924, 403.0901571242139, 342.9413461368531, 339.49876822764054, 0.0, 0.04800000227987766, 0.9760000463575125, 0.0, 0.0, 0.0, 0.0, 0.0, 1.7564893154219704E9, 0.0, 2025-08-29 14:41:55.421
20.0, 430.6214306480251, 366.15490516182035, 442.77797545399517, 456.77081113820896, 0.0, 0.04800000227987766, 0.9760000463575125, 0.0, 0.0, 0.0, 0.0, 0.0, 1.7564893154376156E9, 0.0, 2025-08-29 14:41:55.437
20.0, 621.8200759827159, 444.8760593291372, 386.3017462231219, 363.6996608409099, 0.0, 0.04800000227987766, 0.9760000463575125, 0.0, 0.0, 0.0, 0.0, 0.0, 1.7564893154376156E9, 0.0, 2025-08-29 14:41:55.437
21.0, 614.8040236658417, 454.1360516194254, 327.4058017209172, 274.8919964930974, 0.0, 0.04800000227987766, 0.9760000463575125, 0.0, 0.0, 0.0, 0.0, 0.0, 1.756489315438351E9, 0.0, 2025-08-29 14:41:55.438
21.0, 408.4400840108283, 354.9165057949722, 392.8091721460223, 389.0973214400001, 0.0, 0.04800000227987766, 0.9760000463575125, 0.0, 0.0, 0.0, 0.0, 0.0, 1.756489315438351E9, 0.0, 2025-08-29 14:41:55.438
22.0, 540.8849010416307, 404.16724831145257, 388.39235029835254, 368.62136918259785, 0.0, 0.04800000227987766, 0.9760000463575125, 0.0, 0.0, 0.0, 0.0, 0.0, 1.756489315451976E9, 0.0, 2025-08-29 14:41:55.451
22.0, 639.1732117771171, 450.04460106790066, 281.78650206141174, 227.66827975260094, 0.0, 0.04800000227987766, 0.9760000463575125, 0.0, 0.0, 0.0, 0.0, 0.0, 1.756489315451976E9, 0.0, 2025-08-29 14:41:55.451
23.0, 443.10521670011804, 364.62902597989887, 325.7153669409454, 309.84884137893096, 0.0, 0.04800000227987766, 0.9760000463575125, 0.0, 0.0, 0.0, 0.0, 0.0, 1.75648931546762E9, 0.0, 2025-08-29 14:41:55.467
23.0, 497.2477483586408, 409.8144972445443, 427.76975693181157, 424.54035332007334, 0.0, 0.04800000227987766, 0.9760000463575125, 0.0, 0.0, 0.0, 0.0, 0.0, 1.75648931546762E9, 0.0, 2025-08-29 14:41:55.467
24.0, 644.9401375087909, 452.3222001409158, 302.0231007216498, 245.92273143632337, 0.0, 0.04800000227987766, 0.9760000463575125, 0.0, 0.0, 0.0, 0.0, 0.0, 1.7564893154683535E9, 0.0, 2025-08-29 14:41:55.468
24.0, 528.5058321882971, 418.4910651417449, 305.5124273803085, 254.74515543179587, 0.0, 0.04800000227987766, 0.9760000463575125, 0.0, 0.0, 0.0, 0.0, 0.0, 1.7564893154683535E9, 0.0, 2025-08-29 14:41:55.468
25.0, 433.5198531136848, 377.72241572476923, 414.17522059287876, 408.1708112140186, 0.0, 0.04800000227987766, 0.9760000463575125, 0.0, 0.0, 0.0, 0.0, 0.0, 1.7564893154819896E9, 0.0, 2025-08-29 14:41:55.481
25.0, 635.3285946226679, 462.0758592253551, 366.4054784588516, 321.498629740905, 0.0, 0.04800000227987766, 0.9760000463575125, 0.0, 0.0, 0.0, 0.0, 0.0, 1.7564893154819896E9, 0.0, 2025-08-29 14:41:55.481
26.0, 587.5251933890395, 437.0671482216567, 270.95949168968946, 225.44303927896544, 0.0, 0.04800000227987766, 0.9760000463575125, 0.0, 0.0, 0.0, 0.0, 0.0, 1.756489315497615E9, 0.0, 2025-08-29 14:41:55.497
26.0, 388.4989374470897, 340.2747974684462, 345.8360287025571, 349.20754851261154, 0.0, 0.04800000227987766, 0.9760000463575125, 0.0, 0.0, 0.0, 0.0, 0.0, 1.756489315497615E9, 0.0, 2025-08-29 14:41:55.497
27.0, 559.9808302153833, 431.03842949308455, 387.1918424125761, 374.54163081245497, 0.0, 0.04800000227987766, 0.9760000463575125, 0.0, 0.0, 0.0, 0.0, 0.0, 1.7564893154983425E9, 0.0, 2025-08-29 14:41:55.498
27.0, 645.2355896052904, 468.83759834524244, 277.9905036063865, 222.047210119199, 0.0, 0.04800000227987766, 0.9760000463575125, 0.0, 0.0, 0.0, 0.0, 0.0, 1.7564893154983425E9, 0.0, 2025-08-29 14:41:55.498
28.0, 434.7054013996385, 371.79093439504504, 306.0808921735734, 295.1959133525379, 0.0, 0.04800000227987766, 0.9760000463575125, 0.0, 0.0, 0.0, 0.0, 0.0, 1.7564893155119865E9, 0.0, 2025-08-29 14:41:55.511
28.0, 472.36619395343587, 388.0407997025177, 385.71458193007857, 388.8729274426587, 0.0, 0.04800000227987766, 0.9760000463575125, 0.0, 0.0, 0.0, 0.0, 0.0, 1.7564893155119865E9, 0.0, 2025-08-29 14:41:55.511
29.0, 644.7755819107406, 448.1035929908976, 279.96143088303506, 236.6477795462124, 0.0, 0.04800000227987766, 0.9760000463575125, 0.0, 0.0, 0.0, 0.0, 0.0, 1.7564893155276172E9, 0.0, 2025-08-29 14:41:55.527
29.0, 510.4495952022262, 396.72858729958534, 270.458345095627, 240.82898769667372, 0.0, 0.04800000227987766, 0.9760000463575125, 0.0, 0.0, 0.0, 0.0, 0.0, 1.7564893155276172E9, 0.0, 2025-08-29 14:41:55.527
30.0, 431.09639794239774, 374.143331467174, 387.879984004423, 410.0744202914648, 0.0, 0.04800000227987766, 0.9760000463575125, 0.0, 0.0, 0.0, 0.0, 0.0, 1.756489315528345E9, 0.0, 2025-08-29 14:41:55.528
30.0, 617.3621152355336, 439.26246949564666, 318.20564782992005, 292.963193078991, 0.0, 0.04800000227987766, 0.9760000463575125, 0.0, 0.0, 0.0, 0.0, 0.0, 1.756489315528345E9, 0.0, 2025-08-29 14:41:55.528
31.0, 601.6844546212815, 441.0651012742892, 262.0099110957235, 220.69336633523926, 0.0, 0.04800000227987766, 0.9760000463575125, 0.0, 0.0, 0.0, 0.0, 0.0, 1.75648931554198E9, 0.0, 2025-08-29 14:41:55.541
31.0, 413.33935295278206, 361.0649013221264, 353.8356747077778, 365.50977241946384, 0.0, 0.04800000227987766, 0.9760000463575125, 0.0, 0.0, 0.0, 0.0, 0.0, 1.75648931554198E9, 0.0, 2025-08-29 14:41:55.541
32.0, 562.2472095885314, 425.2789835613221, 372.82688668277115, 369.28333147475496, 0.0, 0.04800000227987766, 0.9760000463575125, 0.0, 0.0, 0.0, 0.0, 0.0, 1.7564893155576155E9, 0.0, 2025-08-29 14:41:55.557
32.0, 643.9902029200457, 440.66867187898606, 261.6845397995785, 218.39706776244566, 0.0, 0.04800000227987766, 0.9760000463575125, 0.0, 0.0, 0.0, 0.0, 0.0, 1.7564893155576155E9, 0.0, 2025-08-29 14:41:55.557
33.0, 446.65812165802345, 366.7271098550409, 311.2157748127356, 293.1988067761995, 0.0, 0.04800000227987766, 0.9760000463575125, 0.0, 0.0, 0.0, 0.0, 0.0, 1.7564893155584056E9, 0.0, 2025-08-29 14:41:55.558
33.0, 462.6873328681104, 371.48800249863416, 379.0388605091721, 369.4591067726724, 0.0, 0.04800000227987766, 0.9760000463575125, 0.0, 0.0, 0.0, 0.0, 0.0, 1.7564893155584056E9, 0.0, 2025-08-29 14:41:55.558
34.0, 643.2684022285976, 444.30011473596096, 283.4245782420039, 240.14832590473816, 0.0, 0.04800000227987766, 0.9760000463575125, 0.0, 0.0, 0.0, 0.0, 0.0, 1.7564893155719695E9, 0.0, 2025-08-29 14:41:55.571
34.0, 524.5677175349556, 404.43652110826224, 276.13925312832, 256.97413580538705, 0.0, 0.04800000227987766, 0.9760000463575125, 0.0, 0.0, 0.0, 0.0, 0.0, 1.7564893155719695E9, 0.0, 2025-08-29 14:41:55.571
35.0, 427.330318687018, 369.1094261268154, 384.659930142574, 405.30978774791583, 0.0, 0.04800000227987766, 0.9760000463575125, 0.0, 0.0, 0.0, 0.0, 0.0, 1.7564893155876184E9, 0.0, 2025-08-29 14:41:55.587
35.0, 603.9059551949613, 419.5344972293824, 311.548625908792, 283.0000995970331, 0.0, 0.04800000227987766, 0.9760000463575125, 0.0, 0.0, 0.0, 0.0, 0.0, 1.7564893155876184E9, 0.0, 2025-08-29 14:41:55.587
36.0, 592.8844700255431, 431.8275483837351, 251.94210041500628, 213.194866924081, 0.0, 0.04800000227987766, 0.9760000463575125, 0.0, 0.0, 0.0, 0.0, 0.0, 1.7564893155883527E9, 0.0, 2025-08-29 14:41:55.588
36.0, 412.8157669589855, 362.1419925093651, 355.8290413841605, 354.75756004685536, 0.0, 0.04800000227987766, 0.9760000463575125, 0.0, 0.0, 0.0, 0.0, 0.0, 1.7564893155883527E9, 0.0, 2025-08-29 14:41:55.588
37.0, 559.4348048218526, 417.380314854905, 340.0167443715036, 327.48620956996456, 0.0, 0.04800000227987766, 0.9760000463575125, 0.0, 0.0, 0.0, 0.0, 0.0, 1.7564893156019676E9, 0.0, 2025-08-29 14:41:55.601
37.0, 645.2580290050246, 444.6890643313527, 278.5327890999615, 227.41396655561402, 0.0, 0.04800000227987766, 0.9760000463575125, 0.0, 0.0, 0.0, 0.0, 0.0, 1.7564893156019676E9, 0.0, 2025-08-29 14:41:55.601
38.0, 450.88794850790873, 371.18881050217897, 321.3396839927882, 317.1304265926592, 0.0, 0.04800000227987766, 0.9760000463575125, 0.0, 0.0, 0.0, 0.0, 0.0, 1.756489315617619E9, 0.0, 2025-08-29 14:41:55.617
38.0, 470.29428937798366, 373.2158362781629, 375.0670867562294, 391.93216560641304, 0.0, 0.04800000227987766, 0.9760000463575125, 0.0, 0.0, 0.0, 0.0, 0.0, 1.756489315617619E9, 0.0, 2025-08-29 14:41:55.617
39.0, 654.4282636963762, 448.52994158584625, 306.5259402683005, 265.0411000098102, 0.0, 0.04800000227987766, 0.9760000463575125, 0.0, 0.0, 0.0, 0.0, 0.0, 1.7564893156183498E9, 0.0, 2025-08-29 14:41:55.618
39.0, 535.5854628044181, 410.43158073723316, 298.1036855680868, 272.195528625045, 0.0, 0.04800000227987766, 0.9760000463575125, 0.0, 0.0, 0.0, 0.0, 0.0, 1.7564893156183498E9, 0.0, 2025-08-29 14:41:55.618
40.0, 410.29881428880617, 347.52272358257324, 386.76549381762743, 403.0957669741474, 0.0, 0.04800000227987766, 0.9760000463575125, 0.0, 0.0, 0.0, 0.0, 0.0, 1.7564893156319869E9, 0.0, 2025-08-29 14:41:55.631
40.0, 611.9018613002263, 427.0142971407622, 334.28721763938665, 300.11014189431444, 0.0, 0.04800000227987766, 0.9760000463575125, 0.0, 0.0, 0.0, 0.0, 0.0, 1.7564893156319869E9, 0.0, 2025-08-29 14:41:55.631
41.0, 592.5703184292652, 426.99559764098376, 255.46508617326617, 227.4551054551266, 0.0, 0.04800000227987766, 0.9760000463575125, 0.0, 0.0, 0.0, 0.0, 0.0, 1.7564893156480634E9, 0.0, 2025-08-29 14:41:55.648
41.0, 408.2792683127336, 341.9727120483294, 342.4514192426577, 363.3294107452966, 0.0, 0.04800000227987766, 0.9760000463575125, 0.0, 0.0, 0.0, 0.0, 0.0, 1.7564893156480634E9, 0.0, 2025-08-29 14:41:55.648
42.0, 539.9312265529297, 396.5677716014907, 359.2099109441042, 356.01790633192286, 0.0, 0.04800000227987766, 0.9760000463575125, 0.0, 0.0, 0.0, 0.0, 0.0, 1.7564893156626244E9, 0.0, 2025-08-29 14:41:55.662
42.0, 629.610287590418, 428.21480502653867, 250.69297382980585, 194.20739484904334, 0.0, 0.04800000227987766, 0.9760000463575125, 0.0, 0.0, 0.0, 0.0, 0.0, 1.7564893156626244E9, 0.0, 2025-08-29 14:41:55.662
43.0, 444.4814998838119, 361.48003021720797, 297.63993797358125, 298.5019849133678, 0.0, 0.04800000227987766, 0.9760000463575125, 0.0, 0.0, 0.0, 0.0, 0.0, 1.756489315663393E9, 0.0, 2025-08-29 14:41:55.663
43.0, 471.15446636779234, 370.9644165048376, 367.5050090458244, 395.33547456609085, 0.0, 0.04800000227987766, 0.9760000463575125, 0.0, 0.0, 0.0, 0.0, 0.0, 1.756489315663393E9, 0.0, 2025-08-29 14:41:55.663
44.0, 662.6036849995144, 455.1121655078605, 294.6966367084533, 269.30832585925236, 0.0, 0.04800000227987766, 0.9760000463575125, 0.0, 0.0, 0.0, 0.0, 0.0, 1.756489315677624E9, 0.0, 2025-08-29 14:41:55.677
44.0, 520.076097688172, 393.3364980397746, 263.0570830833167, 250.90053827734664, 0.0, 0.04800000227987766, 0.9760000463575125, 0.0, 0.0, 0.0, 0.0, 0.0, 1.756489315677624E9, 0.0, 2025-08-29 14:41:55.677
45.0, 419.15863728383556, 351.9358055302873, 372.4454168872908, 386.2437777738087, 0.0, 0.04800000227987766, 0.9760000463575125, 0.0, 0.0, 0.0, 0.0, 0.0, 1.7564893156783488E9, 0.0, 2025-08-29 14:41:55.678
45.0, 621.131934390869, 435.3542740419507, 334.343316138722, 309.7553438800387, 0.0, 0.04800000227987766, 0.9760000463575125, 0.0, 0.0, 0.0, 0.0, 0.0, 1.7564893156783488E9, 0.0, 2025-08-29 14:41:55.678
46.0, 589.436282266397, 419.6878331275657, 243.08975721988827, 192.329965071287, 0.0, 0.04800000227987766, 0.9760000463575125, 0.0, 0.0, 0.0, 0.0, 0.0, 1.756489315692076E9, 0.0, 2025-08-29 14:41:55.692
46.0, 408.8439932060428, 346.92433958966285, 333.7598917456344, 332.9950822046958, 0.0, 0.04800000227987766, 0.9760000463575125, 0.0, 0.0, 0.0, 0.0, 0.0, 1.756489315692076E9, 0.0, 2025-08-29 14:41:55.692
47.0, 553.013396597933, 415.0914960820228, 359.12015334516764, 343.3396454821341, 0.0, 0.04800000227987766, 0.9760000463575125, 0.0, 0.0, 0.0, 0.0, 0.0, 1.7564893157075984E9, 0.0, 2025-08-29 14:41:55.707
47.0, 645.2430694052018, 439.04555529821664, 250.8949284274131, 207.53639829112217, 0.0, 0.04800000227987766, 0.9760000463575125, 0.0, 0.0, 0.0, 0.0, 0.0, 1.7564893157075984E9, 0.0, 2025-08-29 14:41:55.707
48.0, 443.84571689134464, 363.2789220958948, 289.00076907593757, 297.2378987283446, 0.0, 0.04800000227987766, 0.9760000463575125, 0.0, 0.0, 0.0, 0.0, 0.0, 1.7564893157083228E9, 0.0, 2025-08-29 14:41:55.708
48.0, 463.6784063563682, 373.2420155778527, 368.7616154309362, 384.73659809166566, 0.0, 0.04800000227987766, 0.9760000463575125, 0.0, 0.0, 0.0, 0.0, 0.0, 1.7564893157083228E9, 0.0, 2025-08-29 14:41:55.708
49.0, 636.4804838090204, 432.9008996710181, 264.0144974719733, 223.8984605972655, 0.0, 0.04800000227987766, 0.9760000463575125, 0.0, 0.0, 0.0, 0.0, 0.0, 1.7564893157219672E9, 0.0, 2025-08-29 14:41:55.721
49.0, 519.6011303937994, 393.65438953600824, 262.98976488411427, 239.62473991094157, 0.0, 0.04800000227987766, 0.9760000463575125, 0.0, 0.0, 0.0, 0.0, 0.0, 1.7564893157219672E9, 0.0, 2025-08-29 14:41:55.721
50.0, 421.5446934555657, 354.44153850059956, 364.060561186634, 388.51763694686815, 0.0, 0.04800000227987766, 0.9760000463575125, 0.0, 0.0, 0.0, 0.0, 0.0, 1.7564893157375915E9, 0.0, 2025-08-29 14:41:55.737
50.0, 621.1842929902487, 433.6227003624663, 320.46828730311245, 294.4928121608682, 0.0, 0.04800000227987766, 0.9760000463575125, 0.0, 0.0, 0.0, 0.0, 0.0, 1.7564893157375915E9, 0.0, 2025-08-29 14:41:55.737
51.0, 584.7988063213415, 411.87518212012947, 232.853651041165, 186.6303575388156, 0.0, 0.06400000303983688, 0.9760000463575125, 0.0, 0.0, 0.0, 0.0, 0.0, 1.756489315738341E9, 0.0, 2025-08-29 14:41:55.738
51.0, 417.7673945003189, 355.3129351902753, 353.82071510795504, 359.80642498703673, 0.0, 0.06400000303983688, 0.9760000463575125, 0.0, 0.0, 0.0, 0.0, 0.0, 1.756489315738341E9, 0.0, 2025-08-29 14:41:55.738
52.0, 537.1674404856749, 390.71856807079166, 360.81432802509516, 349.3421849110164, 0.0, 0.06400000303983688, 0.9760000463575125, 0.0, 0.0, 0.0, 0.0, 0.0, 1.756489315751966E9, 0.0, 2025-08-29 14:41:55.751
52.0, 646.5183752900921, 440.6275329794735, 254.07384338974953, 202.629649549257, 0.0, 0.06400000303983688, 0.9760000463575125, 0.0, 0.0, 0.0, 0.0, 0.0, 1.756489315751966E9, 0.0, 2025-08-29 14:41:55.751
53.0, 442.1964210108854, 359.44552464131266, 305.49746778048575, 295.76811804575846, 0.0, 0.06400000303983688, 0.9760000463575125, 0.0, 0.0, 0.0, 0.0, 0.0, 1.7564893157676015E9, 0.0, 2025-08-29 14:41:55.767
53.0, 463.9850781527348, 362.661838603206, 364.6589451795444, 376.3928812905215, 0.0, 0.06400000303983688, 0.9760000463575125, 0.0, 0.0, 0.0, 0.0, 0.0, 1.7564893157676015E9, 0.0, 2025-08-29 14:41:55.767
54.0, 650.426570743788, 440.1450858851895, 275.391273137182, 233.41276608454064, 0.0, 0.06400000303983688, 0.9760000463575125, 0.0, 0.0, 0.0, 0.0, 0.0, 1.75648931576834E9, 0.0, 2025-08-29 14:41:55.768
54.0, 538.8316959659569, 411.14590162876993, 283.71255053859204, 256.6861635087989, 0.0, 0.06400000303983688, 0.9760000463575125, 0.0, 0.0, 0.0, 0.0, 0.0, 1.75648931576834E9, 0.0, 2025-08-29 14:41:55.768
55.0, 406.85436642961577, 338.6516808876768, 361.5136893168092, 375.95531299570575, 0.0, 0.06400000303983688, 0.9760000463575125, 0.0, 0.0, 0.0, 0.0, 0.0, 1.7564893157819932E9, 0.0, 2025-08-29 14:41:55.781
55.0, 601.2244469267316, 416.3929812666029, 301.97822192218155, 262.93553633475676, 0.0, 0.06400000303983688, 0.9760000463575125, 0.0, 0.0, 0.0, 0.0, 0.0, 1.7564893157819932E9, 0.0, 2025-08-29 14:41:55.781
56.0, 599.8294642432593, 432.6578061738983, 243.59090381395072, 171.22570962132886, 0.0, 0.06400000303983688, 0.9760000463575125, 0.0, 0.0, 0.0, 0.0, 0.0, 1.7564893157976844E9, 0.0, 2025-08-29 14:41:55.797
56.0, 408.64203860843554, 349.7666635559872, 339.0892491824925, 342.45702909259126, 0.0, 0.06400000303983688, 0.9760000463575125, 0.0, 0.0, 0.0, 0.0, 0.0, 1.7564893157976844E9, 0.0, 2025-08-29 14:41:55.797
57.0, 540.3725347477011, 395.3747435156256, 347.3170290850103, 331.49538232246414, 0.0, 0.06400000303983688, 0.9760000463575125, 0.0, 0.0, 0.0, 0.0, 0.0, 1.7564893157984025E9, 0.0, 2025-08-29 14:41:55.798
57.0, 656.2346353749745, 452.6961901364848, 264.95695226080716, 210.5245783557184, 0.0, 0.06400000303983688, 0.9760000463575125, 0.0, 0.0, 0.0, 0.0, 0.0, 1.7564893157984025E9, 0.0, 2025-08-29 14:41:55.798
58.0, 460.4920115941204, 374.842692758888, 299.0311807570979, 271.87763712881133, 0.0, 0.06400000303983688, 0.9760000463575125, 0.0, 0.0, 0.0, 0.0, 0.0, 1.7564893158283157E9, 0.0, 2025-08-29 14:41:55.828
58.0, 458.7454783148132, 355.7692029848695, 365.56774086877704, 362.77216565189883, 0.0, 0.06400000303983688, 0.9760000463575125, 0.0, 0.0, 0.0, 0.0, 0.0, 1.7564893158283157E9, 0.0, 2025-08-29 14:41:55.828
59.0, 670.1882021096535, 458.8558053635061, 297.63619807362556, 248.24146940885112, 0.0, 0.06400000303983688, 0.9760000463575125, 0.0, 0.0, 0.0, 0.0, 0.0, 1.7564893158290415E9, 0.0, 2025-08-29 14:41:55.829
59.0, 533.4798991293646, 408.36715596169233, 263.4535124786198, 228.99220433691517, 0.0, 0.06400000303983688, 0.9760000463575125, 0.0, 0.0, 0.0, 0.0, 0.0, 1.7564893158290415E9, 0.0, 2025-08-29 14:41:55.829
60.0, 386.85712136654183, 318.2654862292111, 344.22413182165474, 343.3246858823113, 0.0, 0.06400000303983688, 0.9760000463575125, 0.0, 0.0, 0.0, 0.0, 0.0, 1.7564893158297873E9, 0.0, 2025-08-29 14:41:55.829
60.0, 612.2010532966815, 438.71644410211593, 322.9366212738678, 288.0115655376576, 0.0, 0.06400000303983688, 0.9760000463575125, 0.0, 0.0, 0.0, 0.0, 0.0, 1.7564893158297873E9, 0.0, 2025-08-29 14:41:55.829
61.0, 611.1464015091769, 438.8099416010082, 247.3794224690646, 192.17288927314803, 0.0, 0.06400000303983688, 0.9760000463575125, 0.0, 0.0, 0.0, 0.0, 0.0, 1.7564893158419712E9, 0.0, 2025-08-29 14:41:55.841
61.0, 390.8812537188642, 330.43512068502605, 315.68121535982937, 316.73773709731176, 0.0, 0.06400000303983688, 0.9760000463575125, 0.0, 0.0, 0.0, 0.0, 0.0, 1.7564893158419712E9, 0.0, 2025-08-29 14:41:55.841
62.0, 549.6549664377235, 407.94828716665506, 351.7936893319711, 337.5801995503716, -0.01600000075995922, 0.06400000303983688, 0.9760000463575125, 0.0, 0.0, 0.0, 0.0, 0.0, 1.7564893158576431E9, 0.0, 2025-08-29 14:41:55.857
62.0, 632.6396065545268, 428.93286581803113, 237.54722548555583, 157.34320098580793, -0.01600000075995922, 0.06400000303983688, 0.9760000463575125, 0.0, 0.0, 0.0, 0.0, 0.0, 1.7564893158576431E9, 0.0, 2025-08-29 14:41:55.857
63.0, 436.3696568799205, 362.19435110874474, 299.7305420488119, 271.68316233111545, -0.01600000075995922, 0.06400000303983688, 0.9760000463575125, 0.0, 0.0, 0.0, 0.0, 0.0, 1.7564893158583689E9, 0.0, 2025-08-29 14:41:55.858
63.0, 475.6236468148418, 390.9167827684432, 374.27048806566745, 360.80123837525025, -0.01600000075995922, 0.06400000303983688, 0.9760000463575125, 0.0, 0.0, 0.0, 0.0, 0.0, 1.7564893158583689E9, 0.0, 2025-08-29 14:41:55.858
64.0, 641.5181290493347, 431.88738678302616, 253.94668679125607, 210.94718705071136, -0.01600000075995922, 0.06400000303983688, 0.9760000463575125, 0.0, 0.0, 0.0, 0.0, 0.0, 1.756489315871977E9, 0.0, 2025-08-29 14:41:55.871
64.0, 507.1846625409089, 379.8504187995568, 223.72829514928162, 202.92136174580082, -0.01600000075995922, 0.06400000303983688, 0.9760000463575125, 0.0, 0.0, 0.0, 0.0, 0.0, 1.756489315871977E9, 0.0, 2025-08-29 14:41:55.871
65.0, 403.993342963513, 340.5739894649014, 335.9664327194914, 334.8051937832497, -0.01600000075995922, 0.06400000303983688, 0.9760000463575125, 0.0, 0.0, 0.0, 0.0, 0.0, 1.7564893158876424E9, 0.0, 2025-08-29 14:41:55.887
65.0, 589.4063630667515, 406.77395858056843, 297.811973371543, 276.1448629782535, -0.01600000075995922, 0.06400000303983688, 0.9760000463575125, 0.0, 0.0, 0.0, 0.0, 0.0, 1.7564893158876424E9, 0.0, 2025-08-29 14:41:55.887
66.0, 558.3464939347468, 394.42480892688036, 208.5854402286932, 167.08938027033582, -0.01600000075995922, 0.06400000303983688, 0.9760000463575125, 0.0, 0.0, 0.0, 0.0, 0.0, 1.7564893158883698E9, 0.0, 2025-08-29 14:41:55.888
66.0, 413.3580524525605, 361.55482821632177, 331.36635577399284, 337.05287365661934, -0.01600000075995922, 0.06400000303983688, 0.9760000463575125, 0.0, 0.0, 0.0, 0.0, 0.0, 1.7564893158883698E9, 0.0, 2025-08-29 14:41:55.888
67.0, 534.5981292161159, 404.05505131278187, 345.0469098119065, 316.4235855010338, -0.01600000075995922, 0.06400000303983688, 0.9760000463575125, 0.0, 0.0, 0.0, 0.0, 0.0, 1.7564893159019675E9, 0.0, 2025-08-29 14:41:55.901
67.0, 639.7117573707364, 453.3282332289964, 235.64735630806535, 181.94052299438044, -0.01600000075995922, 0.06400000303983688, 0.9760000463575125, 0.0, 0.0, 0.0, 0.0, 0.0, 1.7564893159019675E9, 0.0, 2025-08-29 14:41:55.901
68.0, 439.6308496412821, 358.5741279516369, 275.8363212319091, 265.05605960963294, -0.01600000075995922, 0.06400000303983688, 0.9760000463575125, 0.0, 0.0, 0.0, 0.0, 0.0, 1.7564893159176395E9, 0.0, 2025-08-29 14:41:55.917
68.0, 453.7938507734798, 362.7328967023641, 340.43561316654086, 348.5455862204544, -0.01600000075995922, 0.06400000303983688, 0.9760000463575125, 0.0, 0.0, 0.0, 0.0, 0.0, 1.7564893159176395E9, 0.0, 2025-08-29 14:41:55.917
69.0, 617.5229309336282, 403.1574753234163, 243.06731782015413, 186.17408974422142, -0.01600000075995922, 0.06400000303983688, 0.9760000463575125, 0.0, 0.0, 0.0, 0.0, 0.0, 1.756489315918348E9, 0.0, 2025-08-29 14:41:55.918
69.0, 512.5364593775012, 384.4355361452326, 246.8259172756225, 209.05853757308796, -0.01600000075995922, 0.06400000303983688, 0.9760000463575125, 0.0, 0.0, 0.0, 0.0, 0.0, 1.756489315918348E9, 0.0, 2025-08-29 14:41:55.918
70.0, 407.75568231893703, 345.2002457100898, 355.3091952903196, 357.4166289153509, -0.01600000075995922, 0.06400000303983688, 0.9760000463575125, 0.0, 0.0, 0.0, 0.0, 0.0, 1.7564893159319685E9, 0.0, 2025-08-29 14:41:55.931
70.0, 632.3815534575842, 444.70402393117547, 320.2962519051507, 279.6977679361589, -0.01600000075995922, 0.06400000303983688, 0.9760000463575125, 0.0, 0.0, 0.0, 0.0, 0.0, 1.7564893159319685E9, 0.0, 2025-08-29 14:41:55.931
71.0, 615.4248470584862, 447.67724439594895, 243.26927241776139, 189.13235060917214, -0.01600000075995922, 0.04800000227987766, 0.9760000463575125, 0.0, 0.0, 0.0, 0.0, 0.0, 1.7564893159476466E9, 0.0, 2025-08-29 14:41:55.947
71.0, 405.5528812450357, 327.91068821493536, 310.24714072421193, 302.7841703626327, -0.01600000075995922, 0.04800000227987766, 0.9760000463575125, 0.0, 0.0, 0.0, 0.0, 0.0, 1.7564893159476466E9, 0.0, 2025-08-29 14:41:55.947
72.0, 519.4739737953059, 376.45458963979036, 309.98534772731364, 294.3357363627292, 0.0, 0.04800000227987766, 0.9760000463575125, 0.0, 0.0, 0.0, 0.0, 0.0, 1.7564893159483984E9, 0.0, 2025-08-29 14:41:55.948
72.0, 648.0592140718363, 436.7193375257775, 241.20110774226487, 186.09929174510762, 0.0, 0.04800000227987766, 0.9760000463575125, 0.0, 0.0, 0.0, 0.0, 0.0, 1.7564893159483984E9, 0.0, 2025-08-29 14:41:55.948
73.0, 452.428787289653, 373.94137686956674, 282.7925351494923, 261.6639703498222, 0.0, 0.04800000227987766, 0.9760000463575125, 0.0, 0.0, 0.0, 0.0, 0.0, 1.7564893159620216E9, 0.0, 2025-08-29 14:41:55.962
73.0, 430.8570443452336, 329.68714069388807, 324.35404335707426, 311.8758671549149, 0.0, 0.04800000227987766, 0.9760000463575125, 0.0, 0.0, 0.0, 0.0, 0.0, 1.7564893159620216E9, 0.0, 2025-08-29 14:41:55.962
74.0, 639.3377673751675, 430.3989066006616, 257.7501650461927, 215.73051909403875, 0.0, 0.04800000227987766, 0.9760000463575125, 0.0, 0.0, 0.0, 0.0, 0.0, 1.7564893159776528E9, 0.0, 2025-08-29 14:41:55.977
74.0, 511.923115784768, 371.9928889926523, 237.38640978746116, 207.47281999187544, 0.0, 0.04800000227987766, 0.9760000463575125, 0.0, 0.0, 0.0, 0.0, 0.0, 1.7564893159776528E9, 0.0, 2025-08-29 14:41:55.977
75.0, 418.01422789739445, 350.4286258481443, 359.9578909352422, 373.29250422725454, 0.0, 0.04800000227987766, 0.9760000463575125, 0.0, 0.0, 0.0, 0.0, 0.0, 1.756489315978343E9, 0.0, 2025-08-29 14:41:55.978
75.0, 615.6006223564036, 428.5027773231268, 316.1935816537589, 287.14390874793753, 0.0, 0.04800000227987766, 0.9760000463575125, 0.0, 0.0, 0.0, 0.0, 0.0, 1.756489315978343E9, 0.0, 2025-08-29 14:41:55.978
76.0, 591.9607147364877, 417.09982235822827, 239.36107696406543, 183.94884927058592, 0.0, 0.04800000227987766, 0.9760000463575125, 0.0, 0.0, 0.0, 0.0, 0.0, 1.7564893159919713E9, 0.0, 2025-08-29 14:41:55.991
76.0, 398.36853343015537, 343.8987605255097, 316.047725555487, 313.6897186334245, 0.0, 0.04800000227987766, 0.9760000463575125, 0.0, 0.0, 0.0, 0.0, 0.0, 1.7564893159919713E9, 0.0, 2025-08-29 14:41:55.991
77.0, 524.8220307319425, 378.6686104135588, 328.07150391303, 319.6473792628385, 0.0, 0.04800000227987766, 0.9760000463575125, 0.0, 0.0, 0.0, 0.0, 0.0, 1.75648931600762E9, 0.0, 2025-08-29 14:41:56.007
77.0, 655.0116880894639, 448.30928748846054, 254.07010348979384, 202.83160414686427, 0.0, 0.04800000227987766, 0.9760000463575125, 0.0, 0.0, 0.0, 0.0, 0.0, 1.75648931600762E9, 0.0, 2025-08-29 14:41:56.007
78.0, 432.0014537316747, 352.47809102386236, 271.33348168525845, 250.82574027823284, 0.0, 0.04800000227987766, 0.9760000463575125, 0.0, 0.0, 0.0, 0.0, 0.0, 1.7564893160084155E9, 0.0, 2025-08-29 14:41:56.008
78.0, 456.74089193856344, 361.6184065155685, 350.62310064584017, 353.16062276577577, 0.0, 0.04800000227987766, 0.9760000463575125, 0.0, 0.0, 0.0, 0.0, 0.0, 1.7564893160084155E9, 0.0, 2025-08-29 14:41:56.008
79.0, 656.421630372759, 442.90139215253294, 260.13996111787856, 223.6104883006774, 0.0, 0.04800000227987766, 0.9760000463575125, 0.0, 0.0, 0.0, 0.0, 0.0, 1.7564893160219643E9, 0.0, 2025-08-29 14:41:56.021
79.0, 546.7228848724626, 424.3103494727984, 263.752704475075, 238.55886842356995, 0.0, 0.04800000227987766, 0.9760000463575125, 0.0, 0.0, 0.0, 0.0, 0.0, 1.7564893160219643E9, 0.0, 2025-08-29 14:41:56.021
80.0, 410.433450687211, 335.0576370302588, 335.20723302848637, 344.5625927676447, 0.0, 0.04800000227987766, 0.9760000463575125, 0.0, 0.0, 0.0, 0.0, 0.0, 1.7564893160376153E9, 0.0, 2025-08-29 14:41:56.037
80.0, 613.147247985471, 416.3443625671789, 285.08135392237455, 246.99982262356207, 0.0, 0.04800000227987766, 0.9760000463575125, 0.0, 0.0, 0.0, 0.0, 0.0, 1.7564893160376153E9, 0.0, 2025-08-29 14:41:56.037
81.0, 608.2591987433843, 434.22108435537666, 240.95801424514502, 184.6295110625215, 0.0, 0.04800000227987766, 0.9760000463575125, 0.0, 0.0, 0.0, 0.0, 0.0, 1.7564893160383444E9, 0.0, 2025-08-29 14:41:56.038
81.0, 443.51286579528823, 377.23996863048524, 350.9783911416307, 343.31720608239993, 0.0, 0.04800000227987766, 0.9760000463575125, 0.0, 0.0, 0.0, 0.0, 0.0, 1.7564893160383444E9, 0.0, 2025-08-29 14:41:56.038
82.0, 564.483669762034, 415.6412613755092, 365.1451321737841, 343.6201379788108, 0.0, 0.04800000227987766, 0.9760000463575125, 0.0, 0.0, 0.0, 0.0, 0.0, 1.7564893160519688E9, 0.0, 2025-08-29 14:41:56.051
82.0, 634.9359051273204, 438.944577999413, 239.54059216193855, 189.02763341041282, 0.0, 0.04800000227987766, 0.9760000463575125, 0.0, 0.0, 0.0, 0.0, 0.0, 1.7564893160519688E9, 0.0, 2025-08-29 14:41:56.051
83.0, 451.66584769869223, 373.0325811803341, 299.12841815594584, 285.558191166725, 0.0, 0.04800000227987766, 0.9760000463575125, 0.0, 0.0, 0.0, 0.0, 0.0, 1.7564893160676155E9, 0.0, 2025-08-29 14:41:56.067
83.0, 475.56380841555074, 372.82314678281546, 380.800353388302, 386.07174237584695, 0.0, 0.04800000227987766, 0.9760000463575125, 0.0, 0.0, 0.0, 0.0, 0.0, 1.7564893160676155E9, 0.0, 2025-08-29 14:41:56.067
84.0, 659.2340351394378, 448.2157899895683, 290.7772215548903, 238.43545172503218, 0.0, 0.04800000227987766, 0.9760000463575125, 0.0, 0.0, 0.0, 0.0, 0.0, 1.7564893160683415E9, 0.0, 2025-08-29 14:41:56.068
84.0, 511.814658686053, 385.72580162994564, 237.97731398046017, 207.57379729067907, 0.0, 0.04800000227987766, 0.9760000463575125, 0.0, 0.0, 0.0, 0.0, 0.0, 1.7564893160683415E9, 0.0, 2025-08-29 14:41:56.068
85.0, 419.3381524817087, 354.2844627024606, 360.29448193125427, 372.6866404344328, 0.0, 0.04800000227987766, 0.9760000463575125, 0.0, 0.0, 0.0, 0.0, 0.0, 1.7564893160819716E9, 0.0, 2025-08-29 14:41:56.081
