Sample Index, EXG Channel 0, EXG Channel 1, EXG Channel 2, EXG Channel 3, Accel Channel 0, Accel Channel 1, Accel Channel 2, Other, Other, Other, Other, Other, Timestamp, Marker Channel, Timestamp (Formatted)
0.0, -354.19470510352403, -326.89904527692124, -10178.607086854521, -11390.60394529486, 0.0, 0.0, 0.0, 0.0, 0.0, 0.0, 0.0, 0.0, 1.7564100334481478E9, 0.0, 2025-08-28 16:40:33.448
1.0, -523.1128964521922, -225.3495417800732, -10353.50350828236, -11566.461521011312, 0.0, 0.03200000151991844, 0.0, 0.0, 0.0, 0.0, 0.0, 0.0, 1.7564100334615705E9, 0.0, 2025-08-28 16:40:33.461
1.0, -385.1161979371682, -384.58700209343806, -10463.27705178177, -11759.361820825841, 0.0, 0.03200000151991844, 0.0, 0.0, 0.0, 0.0, 0.0, 0.0, 1.7564100334615705E9, 0.0, 2025-08-28 16:40:33.461
2.0, -482.4583139838651, -389.84530143113807, -10411.438298495952, -11634.052732910495, 0.0, 0.03200000151991844, 0.0, 0.0, 0.0, 0.0, 0.0, 0.0, 1.7564100334783375E9, 0.0, 2025-08-28 16:40:33.478
2.0, -546.633127273526, -204.3013848294504, -10530.086624590214, -11726.630216413643, 0.0, 0.03200000151991844, 0.0, 0.0, 0.0, 0.0, 0.0, 0.0, 1.7564100334783375E9, 0.0, 2025-08-28 16:40:33.478
3.0, -711.5365360197611, -291.20544009981677, -10667.18761706585, -11922.140966397244, 0.0, 0.03200000151991844, 0.0, 0.0, 0.0, 0.0, 0.0, 0.0, 1.7564100334790676E9, 0.0, 2025-08-28 16:40:33.479
3.0, -519.7338968422264, -398.9893568227999, -10507.00022216374, -11773.491162858438, 0.0, 0.03200000151991844, 0.0, 0.0, 0.0, 0.0, 0.0, 0.0, 1.7564100334790676E9, 0.0, 2025-08-28 16:40:33.479
4.0, -663.2806068914942, -239.86035360815004, -10376.290718712378, -11575.770132001024, 0.0, 0.03200000151991844, 0.0, 0.0, 0.0, 0.0, 0.0, 0.0, 1.7564100334914725E9, 0.0, 2025-08-28 16:40:33.491
4.0, -561.3571133990772, -227.98617124883458, -10413.330687873531, -11646.166268866975, 0.0, 0.03200000151991844, 0.0, 0.0, 0.0, 0.0, 0.0, 0.0, 1.7564100334914725E9, 0.0, 2025-08-28 16:40:33.491
5.0, -439.9805302871391, -365.4985527195968, -10293.911942388397, -11541.280774609651, 0.0, 0.03200000151991844, 0.0, 0.0, 0.0, 0.0, 0.0, 0.0, 1.7564100335070703E9, 0.0, 2025-08-28 16:40:33.507
5.0, -320.7487797997892, -291.4821926965378, -10114.894151209388, -11343.163314356934, 0.0, 0.03200000151991844, 0.0, 0.0, 0.0, 0.0, 0.0, 0.0, 1.7564100335070703E9, 0.0, 2025-08-28 16:40:33.507
6.0, -481.92911814013496, -153.02361653698608, -10270.907817760948, -11475.002267594915, 0.0, 0.03200000151991844, 0.0, 0.0, 0.0, 0.0, 0.0, 0.0, 1.7564100335078037E9, 0.0, 2025-08-28 16:40:33.507
6.0, -320.87593639828265, -317.2388836913742, -10399.048009942751, -11666.096195730846, 0.0, 0.03200000151991844, 0.0, 0.0, 0.0, 0.0, 0.0, 0.0, 1.7564100335078037E9, 0.0, 2025-08-28 16:40:33.507
7.0, -421.0491567114368, -325.36942619504407, -10343.222523304168, -11574.868816111702, 0.0, 0.03200000151991844, 0.0, 0.0, 0.0, 0.0, 0.0, 0.0, 1.7564100335213947E9, 0.0, 2025-08-28 16:40:33.521
7.0, -504.4358360734768, -151.1237473594956, -10492.141599639785, -11670.441959479358, 0.0, 0.03200000151991844, 0.0, 0.0, 0.0, 0.0, 0.0, 0.0, 1.7564100335213947E9, 0.0, 2025-08-28 16:40:33.521
8.0, -661.7285484098829, -254.3599457363598, -10621.975966501515, -11891.35784986196, 0.0, 0.03200000151991844, 0.0, 0.0, 0.0, 0.0, 0.0, 0.0, 1.7564100335370376E9, 0.0, 2025-08-28 16:40:33.537
8.0, -450.1717576663941, -338.986401933711, -10436.319852901157, -11692.223136821296, 0.0, 0.03200000151991844, 0.0, 0.0, 0.0, 0.0, 0.0, 0.0, 1.7564100335370376E9, 0.0, 2025-08-28 16:40:33.537
9.0, -612.1636542971246, -188.34323171852157, -10338.801961556543, -11539.594079729635, 0.0, 0.03200000151991844, 0.0, 0.0, 0.0, 0.0, 0.0, 0.0, 1.756410033537751E9, 0.0, 2025-08-28 16:40:33.537
9.0, -512.3606840795837, -170.90407822513953, -10371.350310870912, -11615.996495924424, 0.0, 0.03200000151991844, 0.0, 0.0, 0.0, 0.0, 0.0, 0.0, 1.756410033537751E9, 0.0, 2025-08-28 16:40:33.537
10.0, -394.9745742203668, -321.3153746430762, -10217.120576598216, -11510.995064768475, 0.0, 0.03200000151991844, 0.49600002355873585, 0.0, 0.0, 0.0, 0.0, 0.0, 1.7564100335513053E9, 0.0, 2025-08-28 16:40:33.551
10.0, -266.538929942064, -238.51024972414598, -10073.474759200122, -11281.668139385525, 0.0, 0.03200000151991844, 0.49600002355873585, 0.0, 0.0, 0.0, 0.0, 0.0, 1.7564100335513053E9, 0.0, 2025-08-28 16:40:33.551
11.0, -433.47123441426083, -109.19572895625606, -10254.396159456577, -11455.124699330423, 0.0, 0.04800000227987766, 0.49600002355873585, 0.0, 0.0, 0.0, 0.0, 0.0, 1.7564100335670383E9, 0.0, 2025-08-28 16:40:33.567
11.0, -276.6030007228255, -273.4745744098909, -10339.445224348921, -11634.307046107482, 0.0, 0.04800000227987766, 0.49600002355873585, 0.0, 0.0, 0.0, 0.0, 0.0, 1.7564100335670383E9, 0.0, 2025-08-28 16:40:33.567
12.0, -379.71578240115196, -286.4445474562235, -10303.302831177134, -11578.642375166994, 0.0, 0.04800000227987766, 0.49600002355873585, 0.0, 0.0, 0.0, 0.0, 0.0, 1.7564100335677776E9, 0.0, 2025-08-28 16:40:33.567
12.0, -465.37632093625143, -103.31286632595584, -10459.873742822092, -11689.500489653554, 0.0, 0.04800000227987766, 0.49600002355873585, 0.0, 0.0, 0.0, 0.0, 0.0, 1.7564100335677776E9, 0.0, 2025-08-28 16:40:33.567
13.0, -626.2256781305186, -203.68430133676156, -10564.48622438265, -11889.338303885888, 0.0, 0.04800000227987766, 0.49600002355873585, 0.0, 0.0, 0.0, 0.0, 0.0, 1.756410033581428E9, 0.0, 2025-08-28 16:40:33.581
13.0, -418.502284841612, -303.745324651245, -10382.113742943387, -11682.342321138363, 0.0, 0.04800000227987766, 0.49600002355873585, 0.0, 0.0, 0.0, 0.0, 0.0, 1.756410033581428E9, 0.0, 2025-08-28 16:40:33.581
14.0, -576.7318421169184, -146.9014003095217, -10285.755220585037, -11516.081328708213, 0.0, 0.04800000227987766, 0.49600002355873585, 0.0, 0.0, 0.0, 0.0, 0.0, 1.75641003359705E9, 0.0, 2025-08-28 16:40:33.597
14.0, -478.6080869794823, -134.27549805911258, -10338.880499455612, -11610.764375886414, 0.0, 0.04800000227987766, 0.49600002355873585, 0.0, 0.0, 0.0, 0.0, 0.0, 1.75641003359705E9, 0.0, 2025-08-28 16:40:33.597
15.0, -372.71094978414476, -281.3358441167511, -10205.807379232254, -11491.592463798355, 0.0, 0.04800000227987766, 0.49600002355873585, 0.0, 0.0, 0.0, 0.0, 0.0, 1.7564100335977716E9, 0.0, 2025-08-28 16:40:33.597
15.0, -236.54867219738662, -200.7073409720324, -10073.515898099635, -11297.6562116961, 0.0, 0.04800000227987766, 0.49600002355873585, 0.0, 0.0, 0.0, 0.0, 0.0, 1.7564100335977716E9, 0.0, 2025-08-28 16:40:33.597
16.0, -386.69630566844717, -73.63676017755643, -10253.266709669959, -11461.845299550798, 0.0, 0.04800000227987766, 0.49600002355873585, 0.0, 0.0, 0.0, 0.0, 0.0, 1.7564100336113234E9, 0.0, 2025-08-28 16:40:33.611
16.0, -245.57305079046637, -242.90089227212593, -10345.578660276253, -11623.78296763217, 0.0, 0.04800000227987766, 0.49600002355873585, 0.0, 0.0, 0.0, 0.0, 0.0, 1.7564100336113234E9, 0.0, 2025-08-28 16:40:33.611
17.0, -346.3895338959992, -249.04180799936876, -10264.722023234237, -11520.367254057433, 0.0, 0.04800000227987766, 0.49600002355873585, 0.0, 0.0, 0.0, 0.0, 0.0, 1.756410033627038E9, 0.0, 2025-08-28 16:40:33.627
17.0, -420.6957361656241, -71.2394843059592, -10428.563300393056, -11639.187615549657, 0.0, 0.04800000227987766, 0.49600002355873585, 0.0, 0.0, 0.0, 0.0, 0.0, 1.756410033627038E9, 0.0, 2025-08-28 16:40:33.627
18.0, -576.556066819001, -173.04704089974985, -10546.16071459977, -11817.749138934072, 0.0, 0.04800000227987766, 0.49600002355873585, 0.0, 0.0, 0.0, 0.0, 0.0, 1.7564100336277704E9, 0.0, 2025-08-28 16:40:33.627
18.0, -380.6694568898529, -261.5779526508413, -10370.886563276406, -11644.202821390238, 0.0, 0.04800000227987766, 0.49600002355873585, 0.0, 0.0, 0.0, 0.0, 0.0, 1.7564100336277704E9, 0.0, 2025-08-28 16:40:33.627
19.0, -536.4194604945369, -103.3278259257786, -10279.775120555889, -11483.854610790033, 0.0, 0.04800000227987766, 0.49600002355873585, 0.0, 0.0, 0.0, 0.0, 0.0, 1.756410033641358E9, 0.0, 2025-08-28 16:40:33.641
19.0, -427.4125964860432, -89.22092329291627, -10305.602869649883, -11538.629185541067, 0.0, 0.04800000227987766, 0.49600002355873585, 0.0, 0.0, 0.0, 0.0, 0.0, 1.756410033641358E9, 0.0, 2025-08-28 16:40:33.641
20.0, -326.98693292587996, -243.55911466432735, -10141.294104996603, -11405.686961816158, 0.0, 0.04800000227987766, 0.7200000341981649, 0.0, 0.0, 0.0, 0.0, 0.0, 1.7564100336570208E9, 0.0, 2025-08-28 16:40:33.657
20.0, -197.1675256639719, -164.06754110613838, -10014.821908195037, -11195.313849408645, 0.0, 0.04800000227987766, 0.7200000341981649, 0.0, 0.0, 0.0, 0.0, 0.0, 1.7564100336570208E9, 0.0, 2025-08-28 16:40:33.657
21.0, -357.8280179104768, -45.28083871351555, -10199.464508907404, -11396.557866024319, 0.0, 0.04800000227987766, 0.7200000341981649, 0.0, 0.0, 0.0, 0.0, 0.0, 1.7564100336577854E9, 0.0, 2025-08-28 16:40:33.657
21.0, -215.37335864827037, -209.5970831667073, -10275.859445302282, -11543.995941977482, 0.0, 0.04800000227987766, 0.7200000341981649, 0.0, 0.0, 0.0, 0.0, 0.0, 1.7564100336577854E9, 0.0, 2025-08-28 16:40:33.657
22.0, -323.40036886837333, -212.14021513657644, -10248.34500132827, -11460.869185662363, 0.01600000075995922, 0.04800000227987766, 0.7200000341981649, 0.0, 0.0, 0.0, 0.0, 0.0, 1.75641003367143E9, 0.0, 2025-08-28 16:40:33.671
22.0, -411.64143837289885, -42.83494414249435, -10412.010503189173, -11615.615026128944, 0.01600000075995922, 0.04800000227987766, 0.7200000341981649, 0.0, 0.0, 0.0, 0.0, 0.0, 1.75641003367143E9, 0.0, 2025-08-28 16:40:33.671
23.0, -570.6993834883906, -146.59098861319944, -10523.351064770017, -11794.120451014023, 0.01600000075995922, 0.04800000227987766, 0.7200000341981649, 0.0, 0.0, 0.0, 0.0, 0.0, 1.7564100336869924E9, 0.0, 2025-08-28 16:40:33.686
23.0, -367.3217539479956, -231.93176570208743, -10327.294289392885, -11568.006099693011, 0.01600000075995922, 0.04800000227987766, 0.7200000341981649, 0.0, 0.0, 0.0, 0.0, 0.0, 1.7564100336869924E9, 0.0, 2025-08-28 16:40:33.686
24.0, -511.0330195953138, -81.26615608716384, -10253.573381466325, -11449.821521193255, 0.01600000075995922, 0.04800000227987766, 0.7200000341981649, 0.0, 0.0, 0.0, 0.0, 0.0, 1.756410033687711E9, 0.0, 2025-08-28 16:40:33.687
24.0, -423.39220403367653, -67.07697565527633, -10279.475928559434, -11512.289070153143, 0.01600000075995922, 0.04800000227987766, 0.7200000341981649, 0.0, 0.0, 0.0, 0.0, 0.0, 1.756410033687711E9, 0.0, 2025-08-28 16:40:33.687
25.0, -307.83864515274763, -228.33772184466943, -10104.605686431285, -11382.14429159509, 0.01600000075995922, 0.04800000227987766, 0.7200000341981649, 0.0, 0.0, 0.0, 0.0, 0.0, 1.7564100337013423E9, 0.0, 2025-08-28 16:40:33.701
25.0, -185.1287877066061, -139.27948419982567, -9984.517498854082, -11175.219366946723, 0.01600000075995922, 0.04800000227987766, 0.7200000341981649, 0.0, 0.0, 0.0, 0.0, 0.0, 1.7564100337013423E9, 0.0, 2025-08-28 16:40:33.701
26.0, -332.59491290943697, -17.97956903697923, -10167.409826387186, -11385.446623255964, 0.01600000075995922, 0.04800000227987766, 0.7200000341981649, 0.0, 0.0, 0.0, 0.0, 0.0, 1.7564100337174888E9, 0.0, 2025-08-28 16:40:33.717
26.0, -204.20227748062462, -176.9589762534015, -10228.976059457753, -11526.04442219017, 0.01600000075995922, 0.04800000227987766, 0.7200000341981649, 0.0, 0.0, 0.0, 0.0, 0.0, 1.7564100337174888E9, 0.0, 2025-08-28 16:40:33.717
27.0, -292.4639164349064, -186.87345103593543, -10191.517221501563, -11432.629201096948, 0.01600000075995922, 0.04800000227987766, 0.7200000341981649, 0.0, 0.0, 0.0, 0.0, 0.0, 1.7564100337320118E9, 0.0, 2025-08-28 16:40:33.732
27.0, -361.6763749648817, -11.591819912660867, -10367.700168514159, -11538.142998546828, 0.01600000075995922, 0.04800000227987766, 0.7200000341981649, 0.0, 0.0, 0.0, 0.0, 0.0, 1.7564100337320118E9, 0.0, 2025-08-28 16:40:33.732
28.0, -528.4123346894048, -120.21347422571853, -10477.31663621543, -11738.639035171364, 0.01600000075995922, 0.04800000227987766, 0.7200000341981649, 0.0, 0.0, 0.0, 0.0, 0.0, 1.7564100337327693E9, 0.0, 2025-08-28 16:40:33.732
28.0, -337.7241856986657, -206.42190810432658, -10270.002761971671, -11514.162760030944, 0.01600000075995922, 0.04800000227987766, 0.7200000341981649, 0.0, 0.0, 0.0, 0.0, 0.0, 1.7564100337327693E9, 0.0, 2025-08-28 16:40:33.732
29.0, -482.579860732425, -51.43671404058114, -10218.54921838129, -11379.08131353138, 0.01600000075995922, 0.04800000227987766, 0.7200000341981649, 0.0, 0.0, 0.0, 0.0, 0.0, 1.7564100337469845E9, 0.0, 2025-08-28 16:40:33.746
29.0, -400.1711652087979, -46.230773302260786, -10252.522469578777, -11484.206161385868, 0.01600000075995922, 0.04800000227987766, 0.7200000341981649, 0.0, 0.0, 0.0, 0.0, 0.0, 1.7564100337469845E9, 0.0, 2025-08-28 16:40:33.746
30.0, -281.5882873637602, -193.40331635857, -10060.796498350333, -11327.500613342505, 0.01600000075995922, 0.04800000227987766, 0.8480000402778387, 0.0, 0.0, 0.0, 0.0, 0.0, 1.7564100337477157E9, 0.0, 2025-08-28 16:40:33.747
30.0, -148.05889934580773, -119.4467947348021, -9958.035267267842, -11151.530840627383, 0.01600000075995922, 0.04800000227987766, 0.8480000402778387, 0.0, 0.0, 0.0, 0.0, 0.0, 1.7564100337477157E9, 0.0, 2025-08-28 16:40:33.747
31.0, -313.4241857365705, 12.018168507609516, -10156.938106511254, -11338.731532909442, 0.01600000075995922, 0.04800000227987766, 0.8480000402778387, 0.0, 0.0, 0.0, 0.0, 0.0, 1.7564100337613733E9, 0.0, 2025-08-28 16:40:33.761
31.0, -178.79713708162308, -150.65999976499006, -10204.876144143287, -11447.424245321658, 0.01600000075995922, 0.04800000227987766, 0.8480000402778387, 0.0, 0.0, 0.0, 0.0, 0.0, 1.7564100337613733E9, 0.0, 2025-08-28 16:40:33.761
32.0, -262.4287798907608, -168.37964575504884, -10147.236806026194, -11335.821890743915, 0.01600000075995922, 0.04800000227987766, 0.8480000402778387, 0.0, 0.0, 0.0, 0.0, 0.0, 1.7564100337769873E9, 0.0, 2025-08-28 16:40:33.776
32.0, -347.23288133600727, 11.920931108761579, -10344.535228188615, -11507.210286013316, 0.01600000075995922, 0.04800000227987766, 0.8480000402778387, 0.0, 0.0, 0.0, 0.0, 0.0, 1.7564100337769873E9, 0.0, 2025-08-28 16:40:33.776
33.0, -514.5896644531749, -108.24953426746652, -10477.492411513347, -11710.541166804265, 0.01600000075995922, 0.04800000227987766, 0.8480000402778387, 0.0, 0.0, 0.0, 0.0, 0.0, 1.7564100337777195E9, 0.0, 2025-08-28 16:40:33.777
33.0, -313.1567828897387, -188.12257762113586, -10262.915651555639, -11950.461358811706, 0.01600000075995922, 0.04800000227987766, 0.8480000402778387, 0.0, 0.0, 0.0, 0.0, 0.0, 1.7564100337777195E9, 0.0, 2025-08-28 16:40:33.777
34.0, -462.62749446881935, -40.75555976713076, -10231.627648526337, -11870.87254785467, 0.01600000075995922, 0.04800000227987766, 0.8480000402778387, 0.0, 0.0, 0.0, 0.0, 0.0, 1.7564100337913356E9, 0.0, 2025-08-28 16:40:33.791
34.0, -389.0150436409749, -31.278653279412538, -10264.512588836718, -11923.26480633393, 0.01600000075995922, 0.04800000227987766, 0.8480000402778387, 0.0, 0.0, 0.0, 0.0, 0.0, 1.7564100337913356E9, 0.0, 2025-08-28 16:40:33.791
35.0, -271.4344589840621, -185.74400124931708, -10052.594897747505, -11774.637442194857, 0.01600000075995922, 0.04800000227987766, 0.8480000402778387, 0.0, 0.0, 0.0, 0.0, 0.0, 1.7564100338070996E9, 0.0, 2025-08-28 16:40:33.807
35.0, -128.33466697949916, -104.58069241093472, -9943.023308845703, -11600.836811454035, 0.01600000075995922, 0.04800000227987766, 0.8480000402778387, 0.0, 0.0, 0.0, 0.0, 0.0, 1.7564100338070996E9, 0.0, 2025-08-28 16:40:33.807
36.0, -303.5022311541252, 15.204563269857317, -10161.654120355379, -11821.752701836638, 0.01600000075995922, 0.04800000227987766, 0.8480000402778387, 0.0, 0.0, 0.0, 0.0, 0.0, 1.756410033807727E9, 0.0, 2025-08-28 16:40:33.807
36.0, -170.31504398211837, -134.8925815518014, -10186.02704836661, -11885.604013780132, 0.01600000075995922, 0.04800000227987766, 0.8480000402778387, 0.0, 0.0, 0.0, 0.0, 0.0, 1.756410033807727E9, 0.0, 2025-08-28 16:40:33.807
37.0, -251.6354286186397, -152.96377813769504, -10134.240653680172, -11816.28496810142, 0.01600000075995922, 0.04800000227987766, 0.8480000402778387, 0.0, 0.0, 0.0, 0.0, 0.0, 1.7564100338213365E9, 0.0, 2025-08-28 16:40:33.821
37.0, -314.00387022970244, 19.92057711398229, -10350.537767617498, -11970.021035579965, 0.01600000075995922, 0.04800000227987766, 0.8480000402778387, 0.0, 0.0, 0.0, 0.0, 0.0, 1.7564100338213365E9, 0.0, 2025-08-28 16:40:33.821
38.0, -501.4364363090135, -85.73533653421327, -10435.265201113652, -12152.797426214442, 0.01600000075995922, 0.04800000227987766, 0.8480000402778387, 0.0, 0.0, 0.0, 0.0, 0.0, 1.7564100338369963E9, 0.0, 2025-08-28 16:40:33.836
38.0, -294.67419730871916, -176.5139281586744, -10238.060276450124, -11935.086630093865, 0.01600000075995922, 0.04800000227987766, 0.8480000402778387, 0.0, 0.0, 0.0, 0.0, 0.0, 1.7564100338369963E9, 0.0, 2025-08-28 16:40:33.836
39.0, -447.80627094442025, -25.57530584698543, -10194.550280365627, -11833.103298202157, 0.01600000075995922, 0.04800000227987766, 0.8480000402778387, 0.0, 0.0, 0.0, 0.0, 0.0, 1.756410033837736E9, 0.0, 2025-08-28 16:40:33.837
39.0, -360.2327735819854, -21.13604459958151, -10223.571904021781, -11894.21326347813, 0.01600000075995922, 0.04800000227987766, 0.8480000402778387, 0.0, 0.0, 0.0, 0.0, 0.0, 1.756410033837736E9, 0.0, 2025-08-28 16:40:33.837
40.0, -250.40500153321773, -164.38543260237202, -10006.190219097305, -11731.471516906284, 0.01600000075995922, 0.04800000227987766, 0.9120000433176756, 0.0, 0.0, 0.0, 0.0, 0.0, 1.756410033851344E9, 0.0, 2025-08-28 16:40:33.851
40.0, -120.55193517170846, -86.41225842619315, -9922.988664783072, -11556.773310176097, 0.01600000075995922, 0.04800000227987766, 0.9120000433176756, 0.0, 0.0, 0.0, 0.0, 0.0, 1.756410033851344E9, 0.0, 2025-08-28 16:40:33.851
41.0, -292.6079025832005, 32.10143126966432, -10112.265001540538, -11780.939173620194, 0.01600000075995922, 0.04800000227987766, 0.9120000433176756, 0.0, 0.0, 0.0, 0.0, 0.0, 1.7564100338670175E9, 0.0, 2025-08-28 16:40:33.867
41.0, -146.90701015945524, -129.29395131813362, -10160.322715971153, -11900.982482397929, 0.01600000075995922, 0.04800000227987766, 0.9120000433176756, 0.0, 0.0, 0.0, 0.0, 0.0, 1.7564100338670175E9, 0.0, 2025-08-28 16:40:33.867
42.0, -235.49402040988207, -132.28587128268555, -10093.116713767406, -11776.189500676468, 0.0, 0.04800000227987766, 0.9120000433176756, 0.0, 0.0, 0.0, 0.0, 0.0, 1.7564100338677473E9, 0.0, 2025-08-28 16:40:33.867
42.0, -315.56340851122513, 39.94026157679036, -10332.616167029832, -11974.92778432183, 0.0, 0.04800000227987766, 0.9120000433176756, 0.0, 0.0, 0.0, 0.0, 0.0, 1.7564100338677473E9, 0.0, 2025-08-28 16:40:33.867
43.0, -496.4773289677687, -66.93111955700442, -10427.87515880121, -12129.348253492266, 0.0, 0.04800000227987766, 0.9120000433176756, 0.0, 0.0, 0.0, 0.0, 0.0, 1.7564100338977163E9, 0.0, 2025-08-28 16:40:33.897
43.0, -290.1040395628661, -161.37481313804165, -10197.183169934433, -11899.120012219995, 0.0, 0.04800000227987766, 0.9120000433176756, 0.0, 0.0, 0.0, 0.0, 0.0, 1.7564100338977163E9, 0.0, 2025-08-28 16:40:33.897
44.0, -442.888302502688, -8.887872244697064, -10179.242869846988, -11842.516626390629, 0.0, 0.04800000227987766, 0.9120000433176756, 0.0, 0.0, 0.0, 0.0, 0.0, 1.7564100338984315E9, 0.0, 2025-08-28 16:40:33.898
44.0, -361.3360440689139, -0.7947287405841053, -10220.74453965528, -11917.729754399508, 0.0, 0.04800000227987766, 0.9120000433176756, 0.0, 0.0, 0.0, 0.0, 0.0, 1.7564100338984315E9, 0.0, 2025-08-28 16:40:33.898
45.0, -238.35130397602916, -146.3890340155922, -9987.561777418014, -11700.901574668474, 0.0, 0.04800000227987766, 0.9120000433176756, 0.0, 0.0, 0.0, 0.0, 0.0, 1.7564100338992498E9, 0.0, 2025-08-28 16:40:33.899
45.0, -104.21231226529926, -78.30415532225743, -9882.500507862773, -11527.011186328717, 0.0, 0.04800000227987766, 0.9120000433176756, 0.0, 0.0, 0.0, 0.0, 0.0, 1.7564100338992498E9, 0.0, 2025-08-28 16:40:33.899
46.0, -276.05510537931696, 52.356729429680854, -10102.769395553041, -11749.206122496165, 0.0, 0.04800000227987766, 0.9120000433176756, 0.0, 0.0, 0.0, 0.0, 0.0, 1.7564100339114091E9, 0.0, 2025-08-28 16:40:33.911
46.0, -140.26494783814996, -113.46669470565394, -10112.665170835797, -11860.651401275769, 0.0, 0.04800000227987766, 0.9120000433176756, 0.0, 0.0, 0.0, 0.0, 0.0, 1.7564100339114091E9, 0.0, 2025-08-28 16:40:33.911
47.0, -231.68680225498974, -125.04916486842558, -10075.419507177081, -11765.250293306075, 0.0, 0.04800000227987766, 0.9120000433176756, 0.0, 0.0, 0.0, 0.0, 0.0, 1.75641003392702E9, 0.0, 2025-08-28 16:40:33.927
47.0, -311.198945262935, 49.155375067610294, -9880.901700631715, -11989.734048246406, 0.0, 0.04800000227987766, 0.9120000433176756, 0.0, 0.0, 0.0, 0.0, 0.0, 1.75641003392702E9, 0.0, 2025-08-28 16:40:33.927
48.0, -487.9840161683969, -61.26143122417852, -9942.524032201618, -12136.158611311577, 0.0, 0.04800000227987766, 0.9120000433176756, 0.0, 0.0, 0.0, 0.0, 0.0, 1.7564100339277558E9, 0.0, 2025-08-28 16:40:33.927
48.0, -280.2045243801549, -150.41690626787022, -9718.197353059426, -12377.71687949961, 0.0, 0.04800000227987766, 0.9120000433176756, 0.0, 0.0, 0.0, 0.0, 0.0, 1.7564100339277558E9, 0.0, 2025-08-28 16:40:33.927
49.0, -422.3749512457289, 3.349080410320312, -9713.432720515877, -12311.995617578272, 0.0, 0.04800000227987766, 0.9120000433176756, 0.0, 0.0, 0.0, 0.0, 0.0, 1.7564100339413233E9, 0.0, 2025-08-28 16:40:33.941
49.0, -357.28573241690174, 6.370919574517757, -9747.27133531496, -12415.459949852433, 0.0, 0.04800000227987766, 0.9120000433176756, 0.0, 0.0, 0.0, 0.0, 0.0, 1.7564100339413233E9, 0.0, 2025-08-28 16:40:33.941
50.0, -234.24489382468164, -140.53609058493748, -9977.037698942702, -12199.783659307752, 0.0, 0.04800000227987766, 0.944000044837594, 0.0, 0.0, 0.0, 0.0, 0.0, 1.75641003395705E9, 0.0, 2025-08-28 16:40:33.957
50.0, -100.98851850349456, -67.99325114442036, -9887.242701006588, -12056.485652605537, 0.0, 0.04800000227987766, 0.944000044837594, 0.0, 0.0, 0.0, 0.0, 0.0, 1.75641003395705E9, 0.0, 2025-08-28 16:40:33.957
51.0, -267.61041127936915, 51.67980753770098, -10107.283454799559, -12247.706737339962, 0.0, 0.04800000227987766, 0.944000044837594, 0.0, 0.0, 0.0, 0.0, 0.0, 1.756410033957782E9, 0.0, 2025-08-28 16:40:33.957
51.0, -123.90662543196231, -108.76564046135172, -10112.504355137702, -12335.818780296016, 0.0, 0.04800000227987766, 0.944000044837594, 0.0, 0.0, 0.0, 0.0, 0.0, 1.756410033957782E9, 0.0, 2025-08-28 16:40:33.957
52.0, -220.74385498464108, -114.30817219568416, -10081.074235910084, -12257.116325628478, 0.0, 0.04800000227987766, 0.944000044837594, 0.0, 0.0, 0.0, 0.0, 0.0, 1.7564100339713688E9, 0.0, 2025-08-28 16:40:33.971
52.0, -299.5341973011382, 53.80033081257716, -9858.151889201254, -12475.56014214037, 0.0, 0.04800000227987766, 0.944000044837594, 0.0, 0.0, 0.0, 0.0, 0.0, 1.7564100339713688E9, 0.0, 2025-08-28 16:40:33.971
53.0, -473.835974636022, -59.28676404757425, -9913.928757140413, -12629.86467441218, 0.0, 0.04800000227987766, 0.944000044837594, 0.0, 0.0, 0.0, 0.0, 0.0, 1.7564100339870517E9, 0.0, 2025-08-28 16:40:33.987
53.0, -275.9746975302696, -138.81199670536444, -9716.117968684062, -12385.16302031139, 0.0, 0.04800000227987766, 0.944000044837594, 0.0, 0.0, 0.0, 0.0, 0.0, 1.7564100339870517E9, 0.0, 2025-08-28 16:40:33.987
54.0, -427.4761747852899, 2.0737745254300535, -9733.278499630746, -12335.571946898941, 0.0, 0.04800000227987766, 0.944000044837594, 0.0, 0.0, 0.0, 0.0, 0.0, 1.7564100339878452E9, 0.0, 2025-08-28 16:40:33.987
54.0, -355.3671637396328, 15.08488647127524, -9748.619569248985, -12427.93999600457, 0.0, 0.04800000227987766, 0.944000044837594, 0.0, 0.0, 0.0, 0.0, 0.0, 1.7564100339878452E9, 0.0, 2025-08-28 16:40:33.987
55.0, -231.72420125454664, -132.16619448410347, -9988.375205658376, -12193.418349583168, 0.0, 0.04800000227987766, 0.944000044837594, 0.0, 0.0, 0.0, 0.0, 0.0, 1.756410034001339E9, 0.0, 2025-08-28 16:40:34.001
55.0, -86.60486327391118, -58.94643315160647, -9915.413497422822, -12051.317110866774, 0.0, 0.04800000227987766, 0.944000044837594, 0.0, 0.0, 0.0, 0.0, 0.0, 1.756410034001339E9, 0.0, 2025-08-28 16:40:34.001
56.0, -260.6280180620961, 62.94438620423898, -10158.046986848116, -11810.27120897267, 0.0, 0.04800000227987766, 0.944000044837594, 0.0, 0.0, 0.0, 0.0, 0.0, 1.756410034017044E9, 0.0, 2025-08-28 16:40:34.017
56.0, -115.46567123197019, -105.17533650388941, -10162.523647095077, -11902.197949883528, 0.0, 0.04800000227987766, 0.944000044837594, 0.0, 0.0, 0.0, 0.0, 0.0, 1.756410034017044E9, 0.0, 2025-08-28 16:40:34.017
57.0, -203.97414358332753, -109.4799613528885, -10101.024732223712, -11782.307977003977, 0.0, 0.04800000227987766, 0.944000044837594, 0.0, 0.0, 0.0, 0.0, 0.0, 1.7564100340177472E9, 0.0, 2025-08-28 16:40:34.017
57.0, -292.40220808563754, 64.96019228035584, -9856.467064271215, -11984.240135211498, 0.0, 0.04800000227987766, 0.944000044837594, 0.0, 0.0, 0.0, 0.0, 0.0, 1.7564100340177472E9, 0.0, 2025-08-28 16:40:34.017
58.0, -462.8593682660721, -41.488580158445984, -9899.281438963953, -12110.64501381386, 0.0, 0.04800000227987766, 0.944000044837594, 0.0, 0.0, 0.0, 0.0, 0.0, 1.756410034031388E9, 0.0, 2025-08-28 16:40:34.031
58.0, -249.73181954119354, -135.4124276456423, -9672.609842549544, -11870.812709455378, 0.0, 0.04800000227987766, 0.944000044837594, 0.0, 0.0, 0.0, 0.0, 0.0, 1.756410034031388E9, 0.0, 2025-08-28 16:40:34.031
59.0, -402.78535527782515, 15.458876466844231, -9696.442355017178, -11818.8355798712, 0.0, 0.04800000227987766, 0.944000044837594, 0.0, 0.0, 0.0, 0.0, 0.0, 1.7564100340470176E9, 0.0, 2025-08-28 16:40:34.047
59.0, -357.1810152181424, 14.247148881200701, -9725.07502907794, -11924.81686481554, 0.0, 0.04800000227987766, 0.944000044837594, 0.0, 0.0, 0.0, 0.0, 0.0, 1.7564100340470176E9, 0.0, 2025-08-28 16:40:34.047
60.0, -224.8465252360329, -126.7096804487519, -9943.11306644464, -12146.183413142804, 0.0, 0.04800000227987766, 0.9600000455975533, 0.0, 0.0, 0.0, 0.0, 0.0, 1.7564100340477228E9, 0.0, 2025-08-28 16:40:34.047
60.0, -82.04218532796949, -54.99709879839793, -9865.551281263586, -12029.277880427893, 0.0, 0.04800000227987766, 0.9600000455975533, 0.0, 0.0, 0.0, 0.0, 0.0, 1.7564100340477228E9, 0.0, 2025-08-28 16:40:34.047
61.0, -261.2226621550508, 70.99639080883935, -10104.52340863226, -12259.689376797993, 0.0, 0.06400000303983688, 0.9600000455975533, 0.0, 0.0, 0.0, 0.0, 0.0, 1.7564100340613787E9, 0.0, 2025-08-28 16:40:34.061
61.0, -128.26360888034105, -96.78300100332126, -10090.313658750616, -12326.588707205374, 0.0, 0.06400000303983688, 0.9600000455975533, 0.0, 0.0, 0.0, 0.0, 0.0, 1.7564100340613787E9, 0.0, 2025-08-28 16:40:34.061
62.0, -199.07487464137375, -100.56403985852376, -10047.817175554112, -12225.843282198999, 0.0, 0.06400000303983688, 0.9600000455975533, 0.0, 0.0, 0.0, 0.0, 0.0, 1.7564100340770512E9, 0.0, 2025-08-28 16:40:34.077
62.0, -287.8208306399174, 69.41815302753821, -9849.896060049068, -11986.087645789608, 0.0, 0.06400000303983688, 0.9600000455975533, 0.0, 0.0, 0.0, 0.0, 0.0, 1.7564100340770512E9, 0.0, 2025-08-28 16:40:34.077
63.0, -466.58804852189496, -40.740600167308, -9885.615844525862, -12095.386221994646, 0.0, 0.06400000303983688, 0.9600000455975533, 0.0, 0.0, 0.0, 0.0, 0.0, 1.7564100340777807E9, 0.0, 2025-08-28 16:40:34.077
63.0, -268.9137664139271, -137.18140032468364, -10126.635567120276, -12334.876325507183, 0.0, 0.06400000303983688, 0.9600000455975533, 0.0, 0.0, 0.0, 0.0, 0.0, 1.7564100340777807E9, 0.0, 2025-08-28 16:40:34.077
64.0, -389.3890336365439, 17.792574039194733, -10165.483777910005, -12302.410253991839, 0.0, 0.06400000303983688, 0.9600000455975533, 0.0, 0.0, 0.0, 0.0, 0.0, 1.7564100340913377E9, 0.0, 2025-08-28 16:40:34.091
64.0, -321.42009184183553, 28.847718308214098, -10182.130072612781, -12353.609484385233, 0.0, 0.06400000303983688, 0.9600000455975533, 0.0, 0.0, 0.0, 0.0, 0.0, 1.7564100340913377E9, 0.0, 2025-08-28 16:40:34.091
65.0, -203.51039598882198, -121.1858482141979, -10373.498883395456, -12123.022212717216, 0.0, 0.06400000303983688, 0.9600000455975533, 0.0, 0.0, 0.0, 0.0, 0.0, 1.756410034107047E9, 0.0, 2025-08-28 16:40:34.107
65.0, -64.8835243312642, -42.90226234169677, -10332.389903082512, -12004.231770424638, 0.0, 0.06400000303983688, 0.9600000455975533, 0.0, 0.0, 0.0, 0.0, 0.0, 1.756410034107047E9, 0.0, 2025-08-28 16:40:34.107
66.0, -261.5517733511515, 71.7219314002432, -10100.753589476924, -11779.375895438716, 0.0, 0.06400000303983688, 0.9600000455975533, 0.0, 0.0, 0.0, 0.0, 0.0, 1.7564100341077807E9, 0.0, 2025-08-28 16:40:34.107
66.0, -114.04824914876372, -93.00944194803014, -10056.688218249008, -11790.790070103481, 0.0, 0.06400000303983688, 0.9600000455975533, 0.0, 0.0, 0.0, 0.0, 0.0, 1.7564100341077807E9, 0.0, 2025-08-28 16:40:34.107
67.0, -187.95241217315197, -95.96396291302517, -10026.462346807122, -11714.709285304882, 0.0, 0.06400000303983688, 0.9600000455975533, 0.0, 0.0, 0.0, 0.0, 0.0, 1.7564100341213384E9, 0.0, 2025-08-28 16:40:34.121
67.0, -277.57724466128275, 73.56570207839832, -9823.155775365885, -11947.263744349591, 0.0, 0.06400000303983688, 0.9600000455975533, 0.0, 0.0, 0.0, 0.0, 0.0, 1.7564100341213384E9, 0.0, 2025-08-28 16:40:34.121
68.0, -462.99026476452127, -42.711527443956584, -9865.723316661548, -12088.71050057374, 0.0, 0.06400000303983688, 0.9600000455975533, 0.0, 0.0, 0.0, 0.0, 0.0, 1.7564100341370373E9, 0.0, 2025-08-28 16:40:34.137
68.0, -249.23815274704248, -125.74852616013959, -10088.110857676715, -12291.22421322437, 0.0, 0.06400000303983688, 0.9600000455975533, 0.0, 0.0, 0.0, 0.0, 0.0, 1.7564100341370373E9, 0.0, 2025-08-28 16:40:34.137
69.0, -384.36260809609666, 31.65264327498153, -10146.518745234702, -12278.64318977343, 0.0, 0.06400000303983688, 0.9600000455975533, 0.0, 0.0, 0.0, 0.0, 0.0, 1.756410034137776E9, 0.0, 2025-08-28 16:40:34.137
69.0, -342.79735998855904, 32.07899186993018, -10180.286301934626, -12398.443405054044, 0.0, 0.06400000303983688, 0.9600000455975533, 0.0, 0.0, 0.0, 0.0, 0.0, 1.756410034137776E9, 0.0, 2025-08-28 16:40:34.137
70.0, -208.52934172935784, -125.16884166700765, -10377.56415464729, -12616.54502071999, 0.0, 0.06400000303983688, 0.9600000455975533, 0.0, 0.0, 0.0, 0.0, 0.0, 1.7564100341513784E9, 0.0, 2025-08-28 16:40:34.151
70.0, -67.33315880224109, -35.9984070234932, -10336.642169332132, -12498.93638681341, 0.0, 0.06400000303983688, 0.9600000455975533, 0.0, 0.0, 0.0, 0.0, 0.0, 1.7564100341513784E9, 0.0, 2025-08-28 16:40:34.151
71.0, -253.51846824632958, 69.7173450239934, -10102.960130450781, -12294.586383284535, 0.0, 0.06400000303983688, 0.9600000455975533, 0.0, 0.0, 0.0, 0.0, 0.0, 1.7564100341670165E9, 0.0, 2025-08-28 16:40:34.167
71.0, -118.89141959138215, -87.82594060944393, -10046.306255972013, -12306.901873838622, 0.0, 0.06400000303983688, 0.9600000455975533, 0.0, 0.0, 0.0, 0.0, 0.0, 1.7564100341670165E9, 0.0, 2025-08-28 16:40:34.167
72.0, -181.19067305326462, -93.7312426394783, -10028.42579428386, -12233.326822010335, 0.0, 0.06400000303983688, 0.9600000455975533, 0.0, 0.0, 0.0, 0.0, 0.0, 1.756410034167755E9, 0.0, 2025-08-28 16:40:34.167
72.0, -276.5674716732465, 73.99205067334697, -9842.517237436492, -12012.996225970797, 0.0, 0.06400000303983688, 0.9600000455975533, 0.0, 0.0, 0.0, 0.0, 0.0, 1.756410034167755E9, 0.0, 2025-08-28 16:40:34.167
73.0, -459.1157284104265, -36.9259022125043, -9878.180923413951, -12093.50879221689, 0.0, 0.06400000303983688, 0.9600000455975533, 0.0, 0.0, 0.0, 0.0, 0.0, 1.7564100341813405E9, 0.0, 2025-08-28 16:40:34.181
73.0, -248.92400115076452, -122.80522489501163, -10109.809757219627, -11855.639935335144, 0.0, 0.06400000303983688, 0.9600000455975533, 0.0, 0.0, 0.0, 0.0, 0.0, 1.7564100341813405E9, 0.0, 2025-08-28 16:40:34.181
74.0, -389.1309805396013, 34.83903803722933, -10159.395220782142, -11839.550885725766, 0.0, 0.06400000303983688, 0.9600000455975533, 0.0, 0.0, 0.0, 0.0, 0.0, 1.7564100341970117E9, 0.0, 2025-08-28 16:40:34.197
74.0, -328.9485104526393, 36.13304342189804, -10205.788679732475, -11906.685829830356, 0.0, 0.06400000303983688, 0.9600000455975533, 0.0, 0.0, 0.0, 0.0, 0.0, 1.7564100341970117E9, 0.0, 2025-08-28 16:40:34.197
75.0, -215.38083844818175, -106.64885708643124, -10364.291249704547, -12101.480388972443, 0.0, 0.06400000303983688, 0.9600000455975533, 0.0, 0.0, 0.0, 0.0, 0.0, 1.7564100341977398E9, 0.0, 2025-08-28 16:40:34.197
75.0, -68.45512878894806, -38.41812229482457, -10347.529018103145, -12014.471616503317, 0.0, 0.06400000303983688, 0.9600000455975533, 0.0, 0.0, 0.0, 0.0, 0.0, 1.7564100341977398E9, 0.0, 2025-08-28 16:40:34.197
76.0, -263.8480719239451, 78.3153750221245, -10103.483716444578, -11790.303883109242, 0.0, 0.06400000303983688, 0.9600000455975533, 0.0, 0.0, 0.0, 0.0, 0.0, 1.756410034211339E9, 0.0, 2025-08-28 16:40:34.211
76.0, -129.6885107634589, -91.0609540711157, -10035.382008201443, -11770.076634198893, 0.0, 0.06400000303983688, 0.9600000455975533, 0.0, 0.0, 0.0, 0.0, 0.0, 1.756410034211339E9, 0.0, 2025-08-28 16:40:34.211
77.0, -181.81897624582052, -86.12428612960503, -10006.31550574582, -11685.14724610513, 0.0, 0.06400000303983688, 0.9600000455975533, 0.0, 0.0, 0.0, 0.0, 0.0, 1.7564100342270455E9, 0.0, 2025-08-28 16:40:34.227
77.0, -268.68002266669646, 83.17350506456569, -9829.450026991311, -11478.257850506343, 0.0, 0.06400000303983688, 0.9600000455975533, 0.0, 0.0, 0.0, 0.0, 0.0, 1.7564100342270455E9, 0.0, 2025-08-28 16:40:34.227
78.0, -465.81762913102284, -32.71477486239746, -9845.067849206273, -11556.2497241823, 0.0, 0.06400000303983688, 0.9600000455975533, 0.0, 0.0, 0.0, 0.0, 0.0, 1.7564100342277565E9, 0.0, 2025-08-28 16:40:34.227
78.0, -257.3836548505351, -117.77131955465302, -10061.748302889057, -11791.865291340742, 0.0, 0.06400000303983688, 0.9600000455975533, 0.0, 0.0, 0.0, 0.0, 0.0, 1.7564100342277565E9, 0.0, 2025-08-28 16:40:34.227
79.0, -379.6802533515729, 32.583878363948315, -10147.068510528188, -11799.021589905955, 0.0, 0.06400000303983688, 0.9600000455975533, 0.0, 0.0, 0.0, 0.0, 0.0, 1.7564100342413409E9, 0.0, 2025-08-28 16:40:34.241
79.0, -325.8069944898598, 31.9593150713481, -10160.857521664817, -11859.910901084542, 0.0, 0.06400000303983688, 0.9600000455975533, 0.0, 0.0, 0.0, 0.0, 0.0, 1.7564100342413409E9, 0.0, 2025-08-28 16:40:34.241
80.0, -195.0582220889628, -117.53570585744455, -10317.052573364228, -12063.109015427064, 0.0, 0.06400000303983688, 0.9760000463575125, 0.0, 0.0, 0.0, 0.0, 0.0, 1.7564100342570136E9, 0.0, 2025-08-28 16:40:34.257
80.0, -42.60868019517511, -32.580138463992625, -10321.13841406582, -11997.518650004175, 0.0, 0.06400000303983688, 0.9760000463575125, 0.0, 0.0, 0.0, 0.0, 0.0, 1.7564100342570136E9, 0.0, 2025-08-28 16:40:34.257
81.0, -230.41336632007733, 82.65365897072479, -10106.877675654367, -12222.660627336707, 0.0, 0.06400000303983688, 0.9760000463575125, 0.0, 0.0, 0.0, 0.0, 0.0, 1.7564100342577355E9, 0.0, 2025-08-28 16:40:34.257
81.0, -128.94427067227662, -84.29173515131697, -10022.096013608854, -12259.883851595689, 0.0, 0.06400000303983688, 0.9760000463575125, 0.0, 0.0, 0.0, 0.0, 0.0, 1.7564100342577355E9, 0.0, 2025-08-28 16:40:34.257
82.0, -168.47501320391893, -81.16517878836021, -9983.754559263121, -12164.97267052019, 0.0, 0.06400000303983688, 0.9760000463575125, 0.0, 0.0, 0.0, 0.0, 0.0, 1.7564100342877228E9, 0.0, 2025-08-28 16:40:34.287
82.0, -265.7442012014799, 82.24600987555459, -9820.4536976479, -11970.720396871679, 0.0, 0.06400000303983688, 0.9760000463575125, 0.0, 0.0, 0.0, 0.0, 0.0, 1.7564100342877228E9, 0.0, 2025-08-28 16:40:34.287
83.0, -475.1000608210452, -32.48664096510038, -9852.130650272593, -12064.004721466452, 0.0, 0.06400000303983688, 0.9760000463575125, 0.0, 0.0, 0.0, 0.0, 0.0, 1.7564100342884538E9, 0.0, 2025-08-28 16:40:34.288
83.0, -251.1567214243114, -109.77915334934369, -10028.016275238711, -12232.290869722608, 0.0, 0.06400000303983688, 0.9760000463575125, 0.0, 0.0, 0.0, 0.0, 0.0, 1.7564100342884538E9, 0.0, 2025-08-28 16:40:34.288
84.0, -379.48203865392134, 41.92240855330601, -10114.424793764949, -12250.562150956132, 0.0, 0.06400000303983688, 0.9760000463575125, 0.0, 0.0, 0.0, 0.0, 0.0, 1.7564100342892425E9, 0.0, 2025-08-28 16:40:34.289
84.0, -331.5440010218881, 44.641315821092576, -10133.94707153365, -12317.521319762804, 0.0, 0.06400000303983688, 0.9760000463575125, 0.0, 0.0, 0.0, 0.0, 0.0, 1.7564100342892425E9, 0.0, 2025-08-28 16:40:34.289
85.0, -208.08429363463074, -112.09415142191574, -10296.612150156405, -12513.987614185084, 0.0, 0.06400000303983688, 0.9760000463575125, 0.0, 0.0, 0.0, 0.0, 0.0, 1.756410034301345E9, 0.0, 2025-08-28 16:40:34.301
85.0, -49.89774520881474, -22.089719088282436, -10261.778721969109, -12427.595925208647, 0.0, 0.06400000303983688, 0.9760000463575125, 0.0, 0.0, 0.0, 0.0, 0.0, 1.756410034301345E9, 0.0, 2025-08-28 16:40:34.301
86.0, -244.7596225501038, 85.3202076391317, -10056.516182851046, -12240.82719137147, 0.0, 0.06400000303983688, 0.9760000463575125, 0.0, 0.0, 0.0, 0.0, 0.0, 1.7564100343170736E9, 0.0, 2025-08-28 16:40:34.317
86.0, -108.8310887105763, -78.80156201636419, -9962.134197619278, -12195.55009255791, 0.0, 0.06400000303983688, 0.9760000463575125, 0.0, 0.0, 0.0, 0.0, 0.0, 1.7564100343170736E9, 0.0, 2025-08-28 16:40:34.317
87.0, -170.01959188561887, -84.32539425091818, -9925.763670550194, -12096.061273936648, 0.0, 0.06400000303983688, 0.9760000463575125, 0.0, 0.0, 0.0, 0.0, 0.0, 1.756410034317773E9, 0.0, 2025-08-28 16:40:34.317
87.0, -255.63899152120575, 86.22900332836434, -9784.505779273808, -11940.423467330635, 0.0, 0.06400000303983688, 0.9760000463575125, 0.0, 0.0, 0.0, 0.0, 0.0, 1.756410034317773E9, 0.0, 2025-08-28 16:40:34.317
88.0, -460.66404699208215, -26.484101536218077, -9803.022023954429, -12014.731539550237, 0.0, 0.06400000303983688, 0.9760000463575125, 0.0, 0.0, 0.0, 0.0, 0.0, 1.7564100343313105E9, 0.0, 2025-08-28 16:40:34.331
88.0, -242.18096153065562, -114.98509408766404, -10015.59980738582, -12217.540704297367, 0.0, 0.06400000303983688, 0.9760000463575125, 0.0, 0.0, 0.0, 0.0, 0.0, 1.7564100343313105E9, 0.0, 2025-08-28 16:40:34.331
89.0, -370.51749846013263, 44.17382832663134, -10142.634859130718, -12294.083366740495, 0.0, 0.06400000303983688, 0.9760000463575125, 0.0, 0.0, 0.0, 0.0, 0.0, 1.75641003434707E9, 0.0, 2025-08-28 16:40:34.347
89.0, -321.0984604456462, 31.20011538034305, -10166.98908764217, -12362.482397030108, 0.0, 0.06400000303983688, 0.9760000463575125, 0.0, 0.0, 0.0, 0.0, 0.0, 1.75641003434707E9, 0.0, 2025-08-28 16:40:34.347
90.0, -209.2474025208503, -106.37584438966587, -10289.921469135676, -12531.714739975054, 0.0, 0.06400000303983688, 0.9760000463575125, 0.0, 0.0, 0.0, 0.0, 0.0, 1.7564100343477972E9, 0.0, 2025-08-28 16:40:34.347
90.0, -37.4625778561458, -27.445255824830383, -10300.350180162117, -12482.134886262473, 0.0, 0.06400000303983688, 0.9760000463575125, 0.0, 0.0, 0.0, 0.0, 0.0, 1.7564100343477972E9, 0.0, 2025-08-28 16:40:34.347
91.0, -236.39720624918118, 83.21464396407828, -10101.602546766866, -12284.483043554239, 0.0, 0.06400000303983688, 0.9760000463575125, 0.0, 0.0, 0.0, 0.0, 0.0, 1.7564100343613453E9, 0.0, 2025-08-28 16:40:34.361
91.0, -122.50790284853429, -82.0552749778144, -9988.468703157268, -12234.78912289301, 0.0, 0.06400000303983688, 0.9760000463575125, 0.0, 0.0, 0.0, 0.0, 0.0, 1.7564100343613453E9, 0.0, 2025-08-28 16:40:34.361
92.0, -175.27789122331887, -74.61661396594718, -9962.633474263363, -12155.996910626534, 0.0, 0.06400000303983688, 0.9760000463575125, 0.0, 0.0, 0.0, 0.0, 0.0, 1.7564100343770432E9, 0.0, 2025-08-28 16:40:34.377
92.0, -246.49493612954393, 89.0264484952204, -9827.32576381648, -11983.626791618764, 0.0, 0.06400000303983688, 0.9760000463575125, 0.0, 0.0, 0.0, 0.0, 0.0, 1.7564100343770432E9, 0.0, 2025-08-28 16:40:34.377
93.0, -469.9427387821488, -25.410750248935074, -9828.316837304737, -12058.353732633404, 0.0, 0.06400000303983688, 0.9760000463575125, 0.0, 0.0, 0.0, 0.0, 0.0, 1.7564100343777668E9, 0.0, 2025-08-28 16:40:34.377
93.0, -235.7819927064702, -111.18535573268309, -10011.80941878073, -12221.935086745303, 0.0, 0.06400000303983688, 0.9760000463575125, 0.0, 0.0, 0.0, 0.0, 0.0, 1.7564100343777668E9, 0.0, 2025-08-28 16:40:34.377
94.0, -368.0117654898204, 43.63528273301199, -10139.32691761991, -12323.232146995142, 0.0, 0.06400000303983688, 0.9760000463575125, 0.0, 0.0, 0.0, 0.0, 0.0, 1.7564100343913577E9, 0.0, 2025-08-28 16:40:34.391
94.0, -336.08423956809565, 36.02084642322734, -10154.56327003939, -12360.451631354168, 0.0, 0.06400000303983688, 0.9760000463575125, 0.0, 0.0, 0.0, 0.0, 0.0, 1.7564100343913577E9, 0.0, 2025-08-28 16:40:34.391
95.0, -217.93145021796227, -111.06567893410102, -10300.428718061186, -12547.265243990812, 0.0, 0.06400000303983688, 0.9760000463575125, 0.0, 0.0, 0.0, 0.0, 0.0, 1.7564100344070396E9, 0.0, 2025-08-28 16:40:34.407
95.0, -43.84658708050847, -24.086825664620847, -10328.150726482738, -12465.481111759786, 0.0, 0.06400000303983688, 0.9760000463575125, 0.0, 0.0, 0.0, 0.0, 0.0, 1.7564100344070396E9, 0.0, 2025-08-28 16:40:34.407
96.0, -251.81681376649067, 80.32370129832998, -10127.136713714339, -12299.005075082183, 0.0, 0.06400000303983688, 0.9760000463575125, 0.0, 0.0, 0.0, 0.0, 0.0, 1.7564100344077957E9, 0.0, 2025-08-28 16:40:34.407
96.0, -122.30594825092703, -84.71060394635424, -10004.742877814453, -12219.305937076453, 0.0, 0.06400000303983688, 0.9760000463575125, 0.0, 0.0, 0.0, 0.0, 0.0, 1.7564100344077957E9, 0.0, 2025-08-28 16:40:34.407
97.0, -161.50009978655726, -73.43106567999348, -9981.260045992676, -12179.786414244678, 0.0, 0.06400000303983688, 0.9760000463575125, 0.0, 0.0, 0.0, 0.0, 0.0, 1.7564100344213724E9, 0.0, 2025-08-28 16:40:34.421
97.0, -268.0404997742735, 89.34060009149835, -9836.112658762373, -12021.4446599707, 0.0, 0.06400000303983688, 0.9760000463575125, 0.0, 0.0, 0.0, 0.0, 0.0, 1.7564100344213724E9, 0.0, 2025-08-28 16:40:34.421
98.0, -478.30515508307144, -34.03121964680031, -9840.585579109378, -12076.754040415399, 0.0, 0.06400000303983688, 0.9760000463575125, 0.0, 0.0, 0.0, 0.0, 0.0, 1.7564100344534175E9, 0.0, 2025-08-28 16:40:34.453
98.0, -234.06163872685283, -106.13275089254603, -10035.118345254567, -12239.867907032836, 0.0, 0.06400000303983688, 0.9760000463575125, 0.0, 0.0, 0.0, 0.0, 0.0, 1.7564100344534175E9, 0.0, 2025-08-28 16:40:34.453
99.0, -368.2623387868516, 46.17467480292544, -10164.730188068934, -12306.679349791259, 0.0, 0.06400000303983688, 0.9760000463575125, 0.0, 0.0, 0.0, 0.0, 0.0, 1.7564100344541547E9, 0.0, 2025-08-28 16:40:34.454
99.0, -345.16471666051075, 25.003101153764874, -10173.33195796702, -12374.154624791816, 0.0, 0.06400000303983688, 0.9760000463575125, 0.0, 0.0, 0.0, 0.0, 0.0, 1.7564100344541547E9, 0.0, 2025-08-28 16:40:34.454
100.0, -212.26176188513637, -105.76250079693273, -10296.118483362254, -12558.642019656021, 0.0, 0.06400000303983688, 0.9760000463575125, 0.0, 0.0, 0.0, 0.0, 0.0, 1.7564100344549072E9, 0.0, 2025-08-28 16:40:34.454
100.0, -32.54460941441357, -21.001408201176673, -10318.301699949428, -12503.904843904544, 0.0, 0.06400000303983688, 0.9760000463575125, 0.0, 0.0, 0.0, 0.0, 0.0, 1.7564100344549072E9, 0.0, 2025-08-28 16:40:34.454
0.0, 239.92393190739676, 82.59943042136729, -11607.925791820046, -12810.709406719543, 0.0, 0.06400000303983688, 0.9760000463575125, 0.0, 0.0, 0.0, 0.0, 0.0, 1.7564100344556427E9, 0.0, 2025-08-28 16:40:34.455
1.0, 359.15381244476885, -88.38505565281957, -11475.138773943298, -12746.366297931876, 0.0, 0.06400000303983688, 0.9760000463575125, 0.0, 0.0, 0.0, 0.0, 0.0, 1.7564100344663508E9, 0.0, 2025-08-28 16:40:34.466
1.0, 328.36695600952953, -74.21457472071052, -11458.99736573454, -12676.456348060165, 0.0, 0.06400000303983688, 0.9760000463575125, 0.0, 0.0, 0.0, 0.0, 0.0, 1.7564100344663508E9, 0.0, 2025-08-28 16:40:34.466
2.0, 217.53689077263698, 85.39687558822334, -11330.09984381171, -12538.818679940887, 0.0, 0.06400000303983688, 0.9760000463575125, 0.0, 0.0, 0.0, 0.0, 0.0, 1.756410034482022E9, 0.0, 2025-08-28 16:40:34.482
2.0, 10.136998829897493, -34.99050398543477, -11274.380944321863, -12562.918595255353, 0.0, 0.06400000303983688, 0.9760000463575125, 0.0, 0.0, 0.0, 0.0, 0.0, 1.756410034482022E9, 0.0, 2025-08-28 16:40:34.482
3.0, 254.0140049904585, -99.81792981736362, -11471.419443437364, -12716.38351998711, 0.0, 0.06400000303983688, 0.9760000463575125, 0.0, 0.0, 0.0, 0.0, 0.0, 1.7564100344827764E9, 0.0, 2025-08-28 16:40:34.482
3.0, 130.93950729863718, 51.318907191976905, -11602.493587134406, -12782.33852565568, 0.0, 0.06400000303983688, 0.9760000463575125, 0.0, 0.0, 0.0, 0.0, 0.0, 1.7564100344827764E9, 0.0, 2025-08-28 16:40:34.482
4.0, 163.47289701318368, 33.43470560386777, -11630.748531299643, -12869.313639025204, 0.0, 0.06400000303983688, 0.9760000463575125, 0.0, 0.0, 0.0, 0.0, 0.0, 1.7564100344964292E9, 0.0, 2025-08-28 16:40:34.496
4.0, 278.611326999031, -112.78042306378484, -11750.984444925096, -13008.21913322946, 0.0, 0.06400000303983688, 0.9760000463575125, 0.0, 0.0, 0.0, 0.0, 0.0, 1.7564100344964292E9, 0.0, 2025-08-28 16:40:34.496
5.0, 465.72600158210844, -20.629288155585527, -11777.479766161181, -12969.634585386608, 0.0, 0.06400000303983688, 0.9760000463575125, 0.0, 0.0, 0.0, 0.0, 0.0, 1.7564100345120156E9, 0.0, 2025-08-28 16:40:34.512
5.0, 246.9100650246255, 85.17248159088194, -11592.263090805616, -12793.053339028731, 0.0, 0.06400000303983688, 0.9760000463575125, 0.0, 0.0, 0.0, 0.0, 0.0, 1.7564100345120156E9, 0.0, 2025-08-28 16:40:34.512
6.0, 368.7653553308919, -80.60232384502888, -11438.742067574523, -12723.94933759747, 0.0, 0.06400000303983688, 0.9760000463575125, 0.0, 0.0, 0.0, 0.0, 0.0, 1.7564100345127475E9, 0.0, 2025-08-28 16:40:34.512
6.0, 325.2703188462183, -72.33340504299849, -11423.513194954954, -12644.91029193392, 0.0, 0.06400000303983688, 0.9760000463575125, 0.0, 0.0, 0.0, 0.0, 0.0, 1.7564100345127475E9, 0.0, 2025-08-28 16:40:34.512
7.0, 238.618706822861, 93.46009989269078, -11318.132163953502, -12510.803089372814, 0.0, 0.06400000303983688, 0.9760000463575125, 0.0, 0.0, 0.0, 0.0, 0.0, 1.756410034526342E9, 0.0, 2025-08-28 16:40:34.526
7.0, 24.30747976200655, -34.94562518596649, -11288.360690356232, -12567.885182396509, 0.0, 0.06400000303983688, 0.9760000463575125, 0.0, 0.0, 0.0, 0.0, 0.0, 1.756410034526342E9, 0.0, 2025-08-28 16:40:34.526
8.0, -220.36051523918286, -103.84954196959734, -11477.87825066084, -12729.132838936057, 0.0, 0.06400000303983688, 0.9760000463575125, 0.0, 0.0, 0.0, 0.0, 0.0, 1.7564100345420382E9, 0.0, 2025-08-28 16:40:34.542
8.0, -360.66847192682326, 54.59505955316126, -11640.266576686874, -12830.64307348337, 0.0, 0.06400000303983688, 0.9760000463575125, 0.0, 0.0, 0.0, 0.0, 0.0, 1.7564100345420382E9, 0.0, 2025-08-28 16:40:34.542
9.0, -332.06571706570685, 24.298130012117326, -11648.88704608474, -12903.58234231919, 0.0, 0.06400000303983688, 0.9760000463575125, 0.0, 0.0, 0.0, 0.0, 0.0, 1.7564100345427773E9, 0.0, 2025-08-28 16:40:34.542
9.0, -196.28303932445124, -108.51693711429834, -11753.74075119244, -13014.472245955374, 0.0, 0.06400000303983688, 0.9760000463575125, 0.0, 0.0, 0.0, 0.0, 0.0, 1.7564100345427773E9, 0.0, 2025-08-28 16:40:34.542
10.0, -26.31206613825634, -9.978053081780672, -11792.607661481947, -12990.293792741839, 0.0, 0.06400000303983688, 0.9760000463575125, 0.0, 0.0, 0.0, 0.0, 0.0, 1.7564100345563576E9, 0.0, 2025-08-28 16:40:34.556
10.0, -239.27131936512887, 86.15981517918408, -11625.376165013295, -12823.021157373674, 0.0, 0.06400000303983688, 0.9760000463575125, 0.0, 0.0, 0.0, 0.0, 0.0, 1.7564100345563576E9, 0.0, 2025-08-28 16:40:34.556
11.0, -109.3677643542178, -75.98354739975184, -11438.846784773283, -12695.103489239234, 0.0, 0.06400000303983688, 0.9760000463575125, 0.0, 0.0, 0.0, 0.0, 0.0, 1.7564100345720375E9, 0.0, 2025-08-28 16:40:34.572
11.0, -145.95520562073216, -59.015621300786734, -11441.690978689585, -12617.216332762036, 0.0, 0.06400000303983688, 0.9760000463575125, 0.0, 0.0, 0.0, 0.0, 0.0, 1.7564100345720375E9, 0.0, 2025-08-28 16:40:34.572
12.0, -243.23561331816018, 97.09902254957706, -11358.079905330203, -12520.511869657785, 0.0, 0.06400000303983688, 0.9760000463575125, 0.0, 0.0, 0.0, 0.0, 0.0, 1.7564100345727487E9, 0.0, 2025-08-28 16:40:34.572
12.0, -481.6018768940121, -32.56704881414771, -11310.682283241767, -12566.508899212815, 0.0, 0.06400000303983688, 0.9760000463575125, 0.0, 0.0, 0.0, 0.0, 0.0, 1.7564100345727487E9, 0.0, 2025-08-28 16:40:34.572
13.0, -724.1381289204583, -103.46807217411697, -11468.444353022613, -12711.977917839307, 0.0, 0.06400000303983688, 0.9760000463575125, 0.0, 0.0, 0.0, 0.0, 0.0, 1.7564100345863829E9, 0.0, 2025-08-28 16:40:34.586
13.0, -846.1018763254397, 49.5050557134673, -11638.346138059627, -12830.99836397916, 0.0, 0.06400000303983688, 0.9760000463575125, 0.0, 0.0, 0.0, 0.0, 0.0, 1.7564100345863829E9, 0.0, 2025-08-28 16:40:34.586
14.0, -820.734134925995, 29.560169249773026, -11663.231432364788, -12881.580510879867, 0.0, 0.06400000303983688, 0.9760000463575125, 0.0, 0.0, 0.0, 0.0, 0.0, 1.7564100346019917E9, 0.0, 2025-08-28 16:40:34.601
14.0, -697.2295487392694, -102.6041552843526, -11724.24603019189, -12978.326112883631, 0.0, 0.06400000303983688, 0.9760000463575125, 0.0, 0.0, 0.0, 0.0, 0.0, 1.7564100346019917E9, 0.0, 2025-08-28 16:40:34.601
15.0, -515.059021897614, -9.6339822858572, -11774.194264050107, -12988.627667311579, 0.0, 0.06400000303983688, 0.9760000463575125, 0.0, 0.0, 0.0, 0.0, 0.0, 1.7564100346027231E9, 0.0, 2025-08-28 16:40:34.602
15.0, -726.866385938134, 83.7064408082515, -11598.301159284078, -12828.748814155813, 0.0, 0.06400000303983688, 0.9760000463575125, 0.0, 0.0, 0.0, 0.0, 0.0, 1.7564100346027231E9, 0.0, 2025-08-28 16:40:34.602
16.0, -599.2553896000609, -79.63368975650519, -11402.702521651518, -12684.263389217667, 0.0, 0.06400000303983688, 0.9760000463575125, 0.0, 0.0, 0.0, 0.0, 0.0, 1.7564100346163714E9, 0.0, 2025-08-28 16:40:34.616
16.0, -637.3313110489398, -65.7736205207184, -11390.372071497608, -12611.671931077726, 0.0, 0.06400000303983688, 0.9760000463575125, 0.0, 0.0, 0.0, 0.0, 0.0, 1.7564100346163714E9, 0.0, 2025-08-28 16:40:34.616
17.0, -740.5394601761363, 97.43935344554484, -11318.077935404144, -12525.00161955459, 0.0, 0.06400000303983688, 0.9760000463575125, 0.0, 0.0, 0.0, 0.0, 0.0, 1.756410034632049E9, 0.0, 2025-08-28 16:40:34.632
17.0, -968.1909103789367, -40.91076561529189, -11273.67223328026, -12550.354401354212, 0.0, 0.06400000303983688, 0.9760000463575125, 0.0, 0.0, 0.0, 0.0, 0.0, 1.756410034632049E9, 0.0, 2025-08-28 16:40:34.632
18.0, -1200.401298627723, -103.31473627593368, -11445.275672797114, -12692.405151421204, 0.0, 0.06400000303983688, 0.9760000463575125, 0.0, 0.0, 0.0, 0.0, 0.0, 1.7564100346327612E9, 0.0, 2025-08-28 16:40:34.632
18.0, -1330.547947135754, 57.89739121403545, -11637.92726926459, -12836.251053466927, 0.0, 0.06400000303983688, 0.9760000463575125, 0.0, 0.0, 0.0, 0.0, 0.0, 1.7564100346327612E9, 0.0, 2025-08-28 16:40:34.632
19.0, -1321.7292630402371, 28.318522464483976, -11648.862736735027, -12879.00932966033, 0.0, 0.06400000303983688, 0.9760000463575125, 0.0, 0.0, 0.0, 0.0, 0.0, 1.7564100346463382E9, 0.0, 2025-08-28 16:40:34.646
19.0, -1190.9169123400934, -106.38893403951079, -11712.517703930847, -12977.65854074154, 0.0, 0.06400000303983688, 0.9760000463575125, 0.0, 0.0, 0.0, 0.0, 0.0, 1.7564100346463382E9, 0.0, 2025-08-28 16:40:34.646
20.0, -1010.0665701827966, -12.008818757720292, -11800.115510642994, -12982.443742734846, 0.0, 0.06400000303983688, 0.9760000463575125, 0.0, 0.0, 0.0, 0.0, 0.0, 1.756410034662113E9, 0.0, 2025-08-28 16:40:34.662
20.0, -1221.4550654282793, 76.02842619922012, -11619.682167330757, -12835.32916812785, 0.0, 0.06400000303983688, 0.9760000463575125, 0.0, 0.0, 0.0, 0.0, 0.0, 1.756410034662113E9, 0.0, 2025-08-28 16:40:34.662
21.0, -1102.0905484925024, -86.50014607515186, -11421.27860473143, -12680.454301112797, 0.0, 0.06400000303983688, 0.9760000463575125, 0.0, 0.0, 0.0, 0.0, 0.0, 1.7564100346628373E9, 0.0, 2025-08-28 16:40:34.662
21.0, -1137.2830070755444, -69.29660627897829, -11402.399589755107, -12607.982519771438, 0.0, 0.06400000303983688, 0.9760000463575125, 0.0, 0.0, 0.0, 0.0, 0.0, 1.7564100346628373E9, 0.0, 2025-08-28 16:40:34.662
22.0, -1232.1399596016854, 90.34476322960109, -11344.934156985953, -12517.8602805892, 0.0, 0.06400000303983688, 0.9760000463575125, 0.0, 0.0, 0.0, 0.0, 0.0, 1.756410034676316E9, 0.0, 2025-08-28 16:40:34.676
22.0, -1462.6262539708987, -33.84235469903797, -11287.057335221674, -12546.167583353817, 0.0, 0.06400000303983688, 0.9760000463575125, 0.0, 0.0, 0.0, 0.0, 0.0, 1.756410034676316E9, 0.0, 2025-08-28 16:40:34.676
23.0, -1685.4719327306375, -98.73709873016924, -11440.626977152191, -12687.062704334501, 0.0, 0.06400000303983688, 0.9760000463575125, 0.0, 0.0, 0.0, 0.0, 0.0, 1.7564100346920617E9, 0.0, 2025-08-28 16:40:34.692
23.0, -1822.15966626117, 55.4327971432358, -11633.364591318648, -12829.936232391745, 0.0, 0.06400000303983688, 0.9760000463575125, 0.0, 0.0, 0.0, 0.0, 0.0, 1.7564100346920617E9, 0.0, 2025-08-28 16:40:34.692
24.0, -1816.3553415299393, 37.37282025720924, -11652.04539159732, -12895.788390811533, 0.0, 0.06400000303983688, 0.9760000463575125, 0.0, 0.0, 0.0, 0.0, 0.0, 1.7564100346927888E9, 0.0, 2025-08-28 16:40:34.692
24.0, -1684.959566436708, -106.07478244323283, -11723.348454202525, -12980.278340660501, 0.0, 0.06400000303983688, 0.9760000463575125, 0.0, 0.0, 0.0, 0.0, 0.0, 1.7564100346927888E9, 0.0, 2025-08-28 16:40:34.692
25.0, -1500.1823293259367, -8.680307797156274, -11759.410439525265, -12968.40041840123, 0.0, 0.06400000303983688, 0.9760000463575125, 0.0, 0.0, 0.0, 0.0, 0.0, 1.75641003470632E9, 0.0, 2025-08-28 16:40:34.706
25.0, -1718.5532177886926, 85.51655238680542, -11623.683860283345, -12832.056755666621, 0.0, 0.06400000303983688, 0.9760000463575125, 0.0, 0.0, 0.0, 0.0, 0.0, 1.75641003470632E9, 0.0, 2025-08-28 16:40:34.706
26.0, -1591.6154034426436, -75.54223920498043, -11403.936688636895, -12694.220872849692, 0.0, 0.06400000303983688, 0.9760000463575125, 0.0, 0.0, 0.0, 0.0, 0.0, 1.7564100347220829E9, 0.0, 2025-08-28 16:40:34.722
26.0, -1619.1223676167428, -64.10936504043639, -11408.53115573246, -12643.167498554569, 0.0, 0.06400000303983688, 0.9760000463575125, 0.0, 0.0, 0.0, 0.0, 0.0, 1.7564100347220829E9, 0.0, 2025-08-28 16:40:34.722
27.0, -1726.3696086960845, 92.03519800957292, -11353.967885328922, -12560.82051138021, 0.0, 0.06400000303983688, 0.9760000463575125, 0.0, 0.0, 0.0, 0.0, 0.0, 1.756410034722813E9, 0.0, 2025-08-28 16:40:34.722
27.0, -1952.2782655195333, -29.35073485225439, -11274.130371024832, -12537.025397912133, 0.0, 0.06400000303983688, 0.9760000463575125, 0.0, 0.0, 0.0, 0.0, 0.0, 1.756410034722813E9, 0.0, 2025-08-28 16:40:34.722
28.0, -2187.196341336239, -106.17949964199215, -11434.544029874261, -12667.08976862114, 0.0, 0.06400000303983688, 0.9760000463575125, 0.0, 0.0, 0.0, 0.0, 0.0, 1.7564100347363408E9, 0.0, 2025-08-28 16:40:34.736
28.0, -2305.730600481853, 60.133851387538016, -11671.128231121227, -12841.28121890733, 0.0, 0.06400000303983688, 0.9760000463575125, 0.0, 0.0, 0.0, 0.0, 0.0, 1.7564100347363408E9, 0.0, 2025-08-28 16:40:34.736
29.0, -2302.2113546235487, 27.185332777909935, -11676.225714760832, -12927.74022608297, 0.0, 0.06400000303983688, 0.9760000463575125, 0.0, 0.0, 0.0, 0.0, 0.0, 1.756410034752056E9, 0.0, 2025-08-28 16:40:34.752
29.0, -2169.854425241705, -103.96547886822373, -11723.09227105556, -12997.786682303064, 0.0, 0.06400000303983688, 0.9760000463575125, 0.0, 0.0, 0.0, 0.0, 0.0, 1.756410034752056E9, 0.0, 2025-08-28 16:40:34.752
30.0, -1976.2061454360373, -9.349749889224768, -11792.181312886998, -12997.956847751047, 0.0, 0.06400000303983688, 0.9760000463575125, 0.0, 0.0, 0.0, 0.0, 0.0, 1.75641003475277E9, 0.0, 2025-08-28 16:40:34.752
30.0, -2207.049600251019, 77.11673708632588, -11642.175795614254, -12856.841072672978, 0.0, 0.06400000303983688, 0.9760000463575125, 0.0, 0.0, 0.0, 0.0, 0.0, 1.75641003475277E9, 0.0, 2025-08-28 16:40:34.752
31.0, -2086.5070148291998, -78.57903796900064, -11426.594872518443, -12692.945566964801, 0.0, 0.06400000303983688, 0.9760000463575125, 0.0, 0.0, 0.0, 0.0, 0.0, 1.756410034766353E9, 0.0, 2025-08-28 16:40:34.766
31.0, -2112.8284307173453, -62.31795296166092, -11399.753610536456, -12642.198864466045, 0.0, 0.06400000303983688, 0.9760000463575125, 0.0, 0.0, 0.0, 0.0, 0.0, 1.756410034766353E9, 0.0, 2025-08-28 16:40:34.766
32.0, -2209.7572878189385, 99.8628086168319, -11369.896119240206, -12580.039857252501, 0.0, 0.06400000303983688, 0.9760000463575125, 0.0, 0.0, 0.0, 0.0, 0.0, 1.7564100347820435E9, 0.0, 2025-08-28 16:40:34.782
32.0, -2436.5074221324176, -33.72267790045589, -11278.5135337729, -12560.025782639626, 0.0, 0.06400000303983688, 0.9760000463575125, 0.0, 0.0, 0.0, 0.0, 0.0, 1.7564100347820435E9, 0.0, 2025-08-28 16:40:34.782
33.0, -2669.260095874779, -103.40823377482593, -11453.628739348147, -12693.306467310525, 0.0, 0.06400000303983688, 0.9760000463575125, 0.0, 0.0, 0.0, 0.0, 0.0, 1.7564100347827752E9, 0.0, 2025-08-28 16:40:34.782
33.0, -2796.485882517416, 60.6948363808915, -11679.29991252441, -12867.505397396628, 0.0, 0.06400000303983688, 0.9760000463575125, 0.0, 0.0, 0.0, 0.0, 0.0, 1.7564100347827752E9, 0.0, 2025-08-28 16:40:34.782
34.0, -2792.809560860973, 20.48343205731362, -11688.619743213989, -12928.671461171936, 0.0, 0.06400000303983688, 0.9760000463575125, 0.0, 0.0, 0.0, 0.0, 0.0, 1.7564100347963202E9, 0.0, 2025-08-28 16:40:34.796
34.0, -2654.1434202538803, -105.25574435293674, -11707.919496935327, -12944.466928634793, 0.0, 0.06400000303983688, 0.9760000463575125, 0.0, 0.0, 0.0, 0.0, 0.0, 1.7564100347963202E9, 0.0, 2025-08-28 16:40:34.796
35.0, -2471.2997114202008, -7.180607914924622, -11807.847753801383, -12995.44737488078, 0.0, 0.06400000303983688, 0.9760000463575125, 0.0, 0.0, 0.0, 0.0, 0.0, 1.756410034812175E9, 0.0, 2025-08-28 16:40:34.812
35.0, -2697.71138478769, 81.70185443200171, -11662.887361568864, -12883.551438156515, 0.0, 0.06400000303983688, 0.9760000463575125, 0.0, 0.0, 0.0, 0.0, 0.0, 1.756410034812175E9, 0.0, 2025-08-28 16:40:34.812
36.0, -2580.516009826213, -77.1129971863702, -11430.26745427493, -12701.435139864217, 0.0, 0.06400000303983688, 0.9760000463575125, 0.0, 0.0, 0.0, 0.0, 0.0, 1.7564100348128204E9, 0.0, 2025-08-28 16:40:34.812
36.0, -2593.0297150779516, -57.725355816073716, -11432.760097595397, -12630.859487800393, 0.0, 0.06400000303983688, 0.9760000463575125, 0.0, 0.0, 0.0, 0.0, 0.0, 1.7564100348128204E9, 0.0, 2025-08-28 16:40:34.812
37.0, -2710.4906229362823, 89.57060393877327, -11413.718396971002, -12599.7902689185, 0.0, 0.06400000303983688, 0.9760000463575125, 0.0, 0.0, 0.0, 0.0, 0.0, 1.7564100348263185E9, 0.0, 2025-08-28 16:40:34.826
37.0, -2931.2195183211006, -37.90388605091721, -11305.001375209074, -12542.220118950587, 0.0, 0.06400000303983688, 0.9760000463575125, 0.0, 0.0, 0.0, 0.0, 0.0, 1.7564100348263185E9, 0.0, 2025-08-28 16:40:34.826
38.0, -3166.949152428191, -109.67256620060652, -11454.82363738399, -12682.905805533752, 0.0, 0.06400000303983688, 0.9760000463575125, 0.0, 0.0, 0.0, 0.0, 0.0, 1.756410034842039E9, 0.0, 2025-08-28 16:40:34.842
38.0, -3291.512130302377, 62.27681406214833, -11210.290278781205, -12865.250237723347, 0.0, 0.06400000303983688, 0.9760000463575125, 0.0, 0.0, 0.0, 0.0, 0.0, 1.756410034842039E9, 0.0, 2025-08-28 16:40:34.842
39.0, -3281.949206115678, 18.57234317995608, -11184.84586943267, -12915.361157229636, 0.0, 0.06400000303983688, 0.9760000463575125, 0.0, 0.0, 0.0, 0.0, 0.0, 1.7564100348427649E9, 0.0, 2025-08-28 16:40:34.842
39.0, -3150.703027020674, -115.42079243250191, -11214.583683930337, -12985.430052849464, 0.0, 0.06400000303983688, 0.9760000463575125, 0.0, 0.0, 0.0, 0.0, 0.0, 1.7564100348427649E9, 0.0, 2025-08-28 16:40:34.842
40.0, -2950.3154474948533, -9.701300485059619, -11330.15220241109, -13001.81642450532, 0.0, 0.06400000303983688, 0.9760000463575125, 0.0, 0.0, 0.0, 0.0, 0.0, 1.7564100348563604E9, 0.0, 2025-08-28 16:40:34.856
40.0, -3189.4614802114666, 80.27695254888386, -11196.059959449805, -12889.370722487569, 0.0, 0.06400000303983688, 0.9760000463575125, 0.0, 0.0, 0.0, 0.0, 0.0, 1.7564100348563604E9, 0.0, 2025-08-28 16:40:34.856
41.0, -3062.0561783709563, -89.64540193788707, -11428.345145697705, -12688.633462315891, 0.0, 0.06400000303983688, 0.9760000463575125, 0.0, 0.0, 0.0, 0.0, 0.0, 1.756410034872065E9, 0.0, 2025-08-28 16:40:34.872
41.0, -3086.096255286131, -70.78134656138718, -11420.177204194479, -12646.406251916196, 0.0, 0.06400000303983688, 0.9760000463575125, 0.0, 0.0, 0.0, 0.0, 0.0, 1.756410034872065E9, 0.0, 2025-08-28 16:40:34.872
42.0, -3193.459433264099, 102.15536728966981, -11404.83426462626, -12590.717271625996, 0.0, 0.06400000303983688, 0.9760000463575125, 0.0, 0.0, 0.0, 0.0, 0.0, 1.7564100348727913E9, 0.0, 2025-08-28 16:40:34.872
42.0, -3425.2322532180697, -39.11935353651643, -11322.199305155315, -12549.77471686108, 0.0, 0.06400000303983688, 0.9760000463575125, 0.0, 0.0, 0.0, 0.0, 0.0, 1.7564100348727913E9, 0.0, 2025-08-28 16:40:34.872
43.0, -3648.747374069877, -97.98537883907557, -11463.565653530415, -12688.34735996928, 0.0, 0.06400000303983688, 0.9760000463575125, 0.0, 0.0, 0.0, 0.0, 0.0, 1.7564100348863692E9, 0.0, 2025-08-28 16:40:34.886
43.0, -3776.7884589028545, 58.86602530255914, -11230.730701989029, -12892.465489700902, 0.0, 0.06400000303983688, 0.9760000463575125, 0.0, 0.0, 0.0, 0.0, 0.0, 1.7564100348863692E9, 0.0, 2025-08-28 16:40:34.886
44.0, -3781.051944852341, 25.580915696918964, -11229.947192948312, -12949.843034821097, 0.0, 0.06400000303983688, 0.9760000463575125, 0.0, 0.0, 0.0, 0.0, 0.0, 1.7564100349020305E9, 0.0, 2025-08-28 16:40:34.902
44.0, -3654.259986604564, -110.49160429090261, -11242.395449950825, -12989.308329103515, 0.0, 0.06400000303983688, 0.9760000463575125, 0.0, 0.0, 0.0, 0.0, 0.0, 1.7564100349020305E9, 0.0, 2025-08-28 16:40:34.902
45.0, -3446.441225866787, -10.729772972874343, -11375.171248127706, -13044.642018897925, 0.0, 0.06400000303983688, 0.9760000463575125, 0.0, 0.0, 0.0, 0.0, 0.0, 1.7564100349027643E9, 0.0, 2025-08-28 16:40:34.902
45.0, -3677.112645283807, 77.34113108366728, -11238.692948994692, -12916.799148762599, 0.0, 0.06400000303983688, 0.9760000463575125, 0.0, 0.0, 0.0, 0.0, 0.0, 1.7564100349027643E9, 0.0, 2025-08-28 16:40:34.902
46.0, -3567.5279667321593, -88.66180824954063, -11457.297581204679, -12738.295593827497, 0.0, 0.06400000303983688, 0.9760000463575125, 0.0, 0.0, 0.0, 0.0, 0.0, 1.756410034916391E9, 0.0, 2025-08-28 16:40:34.916
46.0, -3576.406489226967, -66.12143121659756, -11449.155819001142, -12680.084051017184, 0.0, 0.06400000303983688, 0.9760000463575125, 0.0, 0.0, 0.0, 0.0, 0.0, 1.756410034916391E9, 0.0, 2025-08-28 16:40:34.916
47.0, -3690.752060422208, 91.42185441683978, -11440.821451949887, -12644.24271979183, 0.0, 0.06400000303983688, 0.9760000463575125, 0.0, 0.0, 0.0, 0.0, 0.0, 1.7564100349320357E9, 0.0, 2025-08-28 16:40:34.932
47.0, -3925.8683509365655, -36.27328967023641, -11318.599651447963, -12593.415609444026, 0.0, 0.06400000303983688, 0.9760000463575125, 0.0, 0.0, 0.0, 0.0, 0.0, 1.7564100349320357E9, 0.0, 2025-08-28 16:40:34.932
48.0, -4144.955430240836, -98.44164663366973, -11448.465807459317, -12684.091353819706, 0.0, 0.06400000303983688, 0.9760000463575125, 0.0, 0.0, 0.0, 0.0, 0.0, 1.7564100349328113E9, 0.0, 2025-08-28 16:40:34.932
48.0, -4263.2278963895515, 63.2155289510265, -11235.27655038517, -12884.566820994485, 0.0, 0.06400000303983688, 0.9760000463575125, 0.0, 0.0, 0.0, 0.0, 0.0, 1.7564100349328113E9, 0.0, 2025-08-28 16:40:34.932
49.0, -4278.722301905975, 13.482339340262115, -11224.069940167945, -12985.080372203607, 0.0, 0.06400000303983688, 0.9760000463575125, 0.0, 0.0, 0.0, 0.0, 0.0, 1.7564100349463923E9, 0.0, 2025-08-28 16:40:34.946
49.0, -4130.1267269165255, -109.69874550029635, -11203.915619306732, -12977.495855093468, 0.0, 0.06400000303983688, 0.9760000463575125, 0.0, 0.0, 0.0, 0.0, 0.0, 1.7564100349463923E9, 0.0, 2025-08-28 16:40:34.946
50.0, -3923.414976565633, -0.7928587906062603, -11336.220190089196, -13016.164550685324, 0.0, 0.06400000303983688, 0.9760000463575125, 0.0, 0.0, 0.0, 0.0, 0.0, 1.7564100349620347E9, 0.0, 2025-08-28 16:40:34.962
50.0, -3682.9431493147276, 87.40146196447313, -11227.237635430414, -12919.976193774957, 0.0, 0.06400000303983688, 0.9760000463575125, 0.0, 0.0, 0.0, 0.0, 0.0, 1.7564100349620347E9, 0.0, 2025-08-28 16:40:34.962
51.0, -3560.40345731657, -92.59244310297072, -11430.923806717154, -12693.25036881119, 0.0, 0.06400000303983688, 0.9760000463575125, 0.0, 0.0, 0.0, 0.0, 0.0, 1.7564100349627686E9, 0.0, 2025-08-28 16:40:34.962
51.0, -3578.5868509011343, -71.34607145469636, -11444.598750905134, -12648.891415436752, 0.0, 0.06400000303983688, 0.9760000463575125, 0.0, 0.0, 0.0, 0.0, 0.0, 1.7564100349627686E9, 0.0, 2025-08-28 16:40:34.962
52.0, -3693.9459349843673, 92.94399369880557, -11470.602275297046, -12640.317694788333, 0.0, 0.06400000303983688, 0.9760000463575125, 0.0, 0.0, 0.0, 0.0, 0.0, 1.7564100349763973E9, 0.0, 2025-08-28 16:40:34.976
52.0, -3916.6532374457456, -41.213697511702776, -11317.25702736387, -12567.679487898946, 0.0, 0.06400000303983688, 0.9760000463575125, 0.0, 0.0, 0.0, 0.0, 0.0, 1.7564100349763973E9, 0.0, 2025-08-28 16:40:34.976
53.0, -4137.5205091289245, -103.22871857695282, -11434.097111829557, -12661.754801334348, 0.0, 0.06400000303983688, 0.9760000463575125, 0.0, 0.0, 0.0, 0.0, 0.0, 1.7564100350088177E9, 0.0, 2025-08-28 16:40:35.008
53.0, -4251.641686326824, 59.63270479347557, -11243.582868186757, -12416.817533536348, 0.0, 0.06400000303983688, 0.9760000463575125, 0.0, 0.0, 0.0, 0.0, 0.0, 1.7564100350088177E9, 0.0, 2025-08-28 16:40:35.008
54.0, -4274.556053355336, 18.13851478509605, -11237.447562309448, -12468.805882820394, 0.0, 0.06400000303983688, 0.9760000463575125, 0.0, 0.0, 0.0, 0.0, 0.0, 1.7564100350095763E9, 0.0, 2025-08-28 16:40:35.009
54.0, -4137.752382926177, -107.97465162072331, -11217.536334945355, -12473.632223713212, 0.0, 0.06400000303983688, 0.9760000463575125, 0.0, 0.0, 0.0, 0.0, 0.0, 1.7564100350095763E9, 0.0, 2025-08-28 16:40:35.009
55.0, -3928.000093911309, -7.2666256139054894, -11349.489355131984, -12517.850930839311, 0.0, 0.06400000303983688, 0.9760000463575125, 0.0, 0.0, 0.0, 0.0, 0.0, 1.756410035010322E9, 0.0, 2025-08-28 16:40:35.010
55.0, -3689.3383782389574, 80.06377825140953, -11222.899351481814, -12415.83580979798, 0.0, 0.06400000303983688, 0.9760000463575125, 0.0, 0.0, 0.0, 0.0, 0.0, 1.756410035010322E9, 0.0, 2025-08-28 16:40:35.010
56.0, -3564.2443345710635, -83.65408220887184, -11417.587323475163, -12648.304251143709, 0.0, 0.06400000303983688, 0.9760000463575125, 0.0, 0.0, 0.0, 0.0, 0.0, 1.7564100350220146E9, 0.0, 2025-08-28 16:40:35.022
56.0, -3572.329998275265, -66.20744891557842, -11435.866084508598, -12620.722488970496, 0.0, 0.06400000303983688, 0.9760000463575125, 0.0, 0.0, 0.0, 0.0, 0.0, 1.7564100350220146E9, 0.0, 2025-08-28 16:40:35.022
57.0, -3686.8663043682463, 90.79729112423956, -11465.942359952256, -12639.840857543983, 0.0, 0.06400000303983688, 0.9760000463575125, 0.0, 0.0, 0.0, 0.0, 0.0, 1.75641003502274E9, 0.0, 2025-08-28 16:40:35.022
57.0, -3924.3387318546884, -47.335913739167154, -11323.887869985308, -12568.71731013665, 0.0, 0.06400000303983688, 0.9760000463575125, 0.0, 0.0, 0.0, 0.0, 0.0, 1.75641003502274E9, 0.0, 2025-08-28 16:40:35.022
58.0, -4140.785441790242, -105.6409540483728, -11444.516473106109, -12666.652200326324, 0.0, 0.06400000303983688, 0.9760000463575125, 0.0, 0.0, 0.0, 0.0, 0.0, 1.7564100350363448E9, 0.0, 2025-08-28 16:40:35.036
58.0, -4266.186157254502, 59.18391679879278, -11244.98533067014, -12427.934386154637, 0.0, 0.06400000303983688, 0.9760000463575125, 0.0, 0.0, 0.0, 0.0, 0.0, 1.7564100350363448E9, 0.0, 2025-08-28 16:40:35.036
59.0, -4280.281840187497, 27.36484797578305, -11211.672171814833, -12464.858418417163, 0.0, 0.06400000303983688, 0.9760000463575125, 0.0, 0.0, 0.0, 0.0, 0.0, 1.7564100350520084E9, 0.0, 2025-08-28 16:40:35.052
59.0, -4134.072321369778, -100.40509411040694, -11180.260752086993, -12440.631346504204, 0.0, 0.06400000303983688, 0.9760000463575125, 0.0, 0.0, 0.0, 0.0, 0.0, 1.7564100350520084E9, 0.0, 2025-08-28 16:40:35.052
60.0, -3919.95556910662, -3.549165057949722, -11328.759089677595, -12528.685421010945, 0.0, 0.06400000303983688, 0.9760000463575125, 0.0, 0.0, 0.0, 0.0, 0.0, 1.7564100350527403E9, 0.0, 2025-08-28 16:40:35.052
60.0, -3678.1897364710458, 83.21277401410043, -11206.174518879969, -12402.93315495085, 0.0, 0.06400000303983688, 0.9760000463575125, 0.0, 0.0, 0.0, 0.0, 0.0, 1.7564100350527403E9, 0.0, 2025-08-28 16:40:35.052
61.0, -3566.2377012474462, -81.98234692867845, -11386.389078044798, -12160.840081069153, 0.0, 0.06400000303983688, 0.9760000463575125, 0.0, 0.0, 0.0, 0.0, 0.0, 1.75641003506637E9, 0.0, 2025-08-28 16:40:35.066
61.0, -3564.2331148711964, -54.63619845267385, -11369.219197348226, -12086.502089649905, 0.0, 0.06400000303983688, 0.9760000463575125, 0.0, 0.0, 0.0, 0.0, 0.0, 1.75641003506637E9, 0.0, 2025-08-28 16:40:35.066
62.0, -3669.4944690740667, 102.4582991860807, -11410.182321562897, -12108.107491693925, 0.01600000075995922, 0.06400000303983688, 0.9760000463575125, 0.0, 0.0, 0.0, 0.0, 0.0, 1.7564100350820117E9, 0.0, 2025-08-28 16:40:35.082
62.0, -3429.6602947656065, -34.62025388982147, -11235.669239880517, -12015.030731546693, 0.01600000075995922, 0.06400000303983688, 0.9760000463575125, 0.0, 0.0, 0.0, 0.0, 0.0, 1.7564100350820117E9, 0.0, 2025-08-28 16:40:35.082
63.0, -3644.5437265196815, -100.26671781204641, -11362.184445531573, -12101.379411673639, 0.01600000075995922, 0.06400000303983688, 0.9760000463575125, 0.0, 0.0, 0.0, 0.0, 0.0, 1.7564100350827587E9, 0.0, 2025-08-28 16:40:35.082
63.0, -3764.1999556520022, 65.6240245224908, -11188.006084895227, -11882.079158071894, 0.01600000075995922, 0.06400000303983688, 0.9760000463575125, 0.0, 0.0, 0.0, 0.0, 0.0, 1.7564100350827587E9, 0.0, 2025-08-28 16:40:35.082
64.0, -3788.7673584609292, 18.635921479202807, -11179.301467748359, -11906.108015287202, 0.01600000075995922, 0.06400000303983688, 0.9760000463575125, 0.0, 0.0, 0.0, 0.0, 0.0, 1.756410035096364E9, 0.0, 2025-08-28 16:40:35.096
64.0, -3641.981895050034, -99.81792981736362, -11114.414203517139, -11880.313925292809, 0.01600000075995922, 0.06400000303983688, 0.9760000463575125, 0.0, 0.0, 0.0, 0.0, 0.0, 1.756410035096364E9, 0.0, 2025-08-28 16:40:35.096
65.0, -3428.530844978988, 4.222347049973905, -11263.739058997948, -11980.8891848512, 0.01600000075995922, 0.06400000303983688, 0.9760000463575125, 0.0, 0.0, 0.0, 0.0, 0.0, 1.756410035112035E9, 0.0, 2025-08-28 16:40:35.112
65.0, -3193.8409030595794, 77.04567898716778, -11148.327616315335, -11879.794079198968, 0.01600000075995922, 0.06400000303983688, 0.9760000463575125, 0.0, 0.0, 0.0, 0.0, 0.0, 1.756410035112035E9, 0.0, 2025-08-28 16:40:35.112
66.0, -3072.636355345603, -86.48144657537341, -11289.46396084316, -12092.46723007923, 0.01600000075995922, 0.06400000303983688, 0.9760000463575125, 0.0, 0.0, 0.0, 0.0, 0.0, 1.7564100351127636E9, 0.0, 2025-08-28 16:40:35.112
66.0, -3070.50461237086, -53.772281562909484, -11310.588785742875, -12038.283559521195, 0.01600000075995922, 0.06400000303983688, 0.9760000463575125, 0.0, 0.0, 0.0, 0.0, 0.0, 1.7564100351127636E9, 0.0, 2025-08-28 16:40:35.112
67.0, -3180.063111622818, 100.15078091342002, -11349.476265482139, -12070.282143542077, 0.01600000075995922, 0.06400000303983688, 0.9760000463575125, 0.0, 0.0, 0.0, 0.0, 0.0, 1.7564100351263616E9, 0.0, 2025-08-28 16:40:35.126
67.0, -2941.8370942953043, -33.3860869044438, -11181.317273824476, -11970.118272978812, 0.01600000075995922, 0.06400000303983688, 0.9760000463575125, 0.0, 0.0, 0.0, 0.0, 0.0, 1.7564100351263616E9, 0.0, 2025-08-28 16:40:35.126
68.0, -3154.3082905779593, -92.51764510385692, -11296.923191304784, -12057.659981191624, 0.01600000075995922, 0.06400000303983688, 0.9760000463575125, 0.0, 0.0, 0.0, 0.0, 0.0, 1.7564100351420689E9, 0.0, 2025-08-28 16:40:35.142
68.0, -3282.0651430143043, 67.27332040295005, -11143.70696992008, -11850.155372050125, 0.01600000075995922, 0.06400000303983688, 0.9760000463575125, 0.0, 0.0, 0.0, 0.0, 0.0, 1.7564100351420689E9, 0.0, 2025-08-28 16:40:35.142
69.0, -3300.753423092887, 24.99001150391996, -11119.104038061574, -11891.16711496422, 0.01600000075995922, 0.06400000303983688, 0.9760000463575125, 0.0, 0.0, 0.0, 0.0, 0.0, 1.75641003514277E9, 0.0, 2025-08-28 16:40:35.142
69.0, -3143.0885907108895, -97.06162355002016, -11081.181452510878, -11861.670524013694, 0.01600000075995922, 0.06400000303983688, 0.9760000463575125, 0.0, 0.0, 0.0, 0.0, 0.0, 1.75641003514277E9, 0.0, 2025-08-28 16:40:35.142
70.0, -2938.8526541306637, 5.793105031363666, -11258.275065162685, -11985.564059795812, 0.01600000075995922, 0.06400000303983688, 0.9760000463575125, 0.0, 0.0, 0.0, 0.0, 0.0, 1.7564100351563144E9, 0.0, 2025-08-28 16:40:35.156
70.0, -2702.3563405326568, 83.00707951653749, -11129.904869133607, -11899.492132265586, 0.01600000075995922, 0.06400000303983688, 0.9760000463575125, 0.0, 0.0, 0.0, 0.0, 0.0, 1.7564100351563144E9, 0.0, 2025-08-28 16:40:35.156
71.0, -2574.0572026027367, -83.56806450989097, -11286.352364080027, -12081.1091539138, 0.01600000075995922, 0.06400000303983688, 0.9760000463575125, 0.0, 0.0, 0.0, 0.0, 0.0, 1.7564100351720676E9, 0.0, 2025-08-28 16:40:35.172
71.0, -2585.3741398686543, -56.199476634152234, -11321.333518315572, -12037.677695728373, 0.01600000075995922, 0.06400000303983688, 0.9760000463575125, 0.0, 0.0, 0.0, 0.0, 0.0, 1.7564100351720676E9, 0.0, 2025-08-28 16:40:35.172
72.0, -2692.969191643875, 100.58834920823574, -11395.499474336859, -12068.733824960422, 0.01600000075995922, 0.06400000303983688, 0.9760000463575125, 0.0, 0.0, 0.0, 0.0, 0.0, 1.7564100351727977E9, 0.0, 2025-08-28 16:40:35.172
72.0, -2454.219588322565, -38.30779524613172, -11211.707700864412, -11951.684306097217, 0.01600000075995922, 0.06400000303983688, 0.9760000463575125, 0.0, 0.0, 0.0, 0.0, 0.0, 1.7564100351727977E9, 0.0, 2025-08-28 16:40:35.172
73.0, -2672.0650208415464, -99.9712657155469, -11303.542814226355, -12063.239911925513, 0.01600000075995922, 0.06400000303983688, 0.9760000463575125, 0.0, 0.0, 0.0, 0.0, 0.0, 1.7564100351863396E9, 0.0, 2025-08-28 16:40:35.186
73.0, -2776.971084548626, 72.29974594339728, -11165.970594356302, -11845.446838005912, 0.01600000075995922, 0.06400000303983688, 0.9760000463575125, 0.0, 0.0, 0.0, 0.0, 0.0, 1.7564100351863396E9, 0.0, 2025-08-28 16:40:35.186
74.0, -2795.3975716303103, 21.76995764207095, -11151.656127275899, -11872.647130383644, 0.01600000075995922, 0.06400000303983688, 0.9760000463575125, 0.0, 0.0, 0.0, 0.0, 0.0, 1.756410035202061E9, 0.0, 2025-08-28 16:40:35.202
74.0, -2646.248491447419, -103.31847617588937, -11076.039090071805, -11843.958357823547, 0.01600000075995922, 0.06400000303983688, 0.9760000463575125, 0.0, 0.0, 0.0, 0.0, 0.0, 1.756410035202061E9, 0.0, 2025-08-28 16:40:35.202
75.0, -2428.8144479235634, 3.414528659544885, -11272.303429896478, -11967.347007111646, 0.01600000075995922, 0.06400000303983688, 0.9760000463575125, 0.0, 0.0, 0.0, 0.0, 0.0, 1.7564100352027907E9, 0.0, 2025-08-28 16:40:35.202
75.0, -2206.3913778588176, 75.73671400267631, -11176.268408884294, -11876.592724836897, 0.01600000075995922, 0.06400000303983688, 0.9760000463575125, 0.0, 0.0, 0.0, 0.0, 0.0, 1.7564100352027907E9, 0.0, 2025-08-28 16:40:35.202
76.0, -2081.158957892563, -89.90719493478537, -11315.661960032769, -12083.943998080213, 0.01600000075995922, 0.06400000303983688, 0.9760000463575125, 0.0, 0.0, 0.0, 0.0, 0.0, 1.756410035216402E9, 0.0, 2025-08-28 16:40:35.216
76.0, -2091.0584730752744, -56.26679483335465, -11347.135088109877, -12054.941073923837, 0.01600000075995922, 0.06400000303983688, 0.9760000463575125, 0.0, 0.0, 0.0, 0.0, 0.0, 1.756410035216402E9, 0.0, 2025-08-28 16:40:35.216
77.0, -2198.305714154616, 97.28975744731724, -11415.945507394616, -12096.244529034477, 0.01600000075995922, 0.06400000303983688, 0.9760000463575125, 0.0, 0.0, 0.0, 0.0, 0.0, 1.756410035232093E9, 0.0, 2025-08-28 16:40:35.232
77.0, -1961.0520708155818, -32.52964981459081, -11224.419620813802, -11980.118765460327, 0.01600000075995922, 0.06400000303983688, 0.9760000463575125, 0.0, 0.0, 0.0, 0.0, 0.0, 1.756410035232093E9, 0.0, 2025-08-28 16:40:35.232
78.0, -2171.432663023006, -89.02083864528686, -11331.00115970103, -12060.704259755556, 0.01600000075995922, 0.06400000303983688, 0.9760000463575125, 0.0, 0.0, 0.0, 0.0, 0.0, 1.7564100352327938E9, 0.0, 2025-08-28 16:40:35.232
78.0, -2281.2529552718624, 72.83081173710525, -11217.300721248146, -11891.253132663202, 0.01600000075995922, 0.06400000303983688, 0.9760000463575125, 0.0, 0.0, 0.0, 0.0, 0.0, 1.7564100352327938E9, 0.0, 2025-08-28 16:40:35.232
79.0, -2308.56170474831, 23.77828391827643, -11172.457450829446, -11889.76278253086, 0.01600000075995922, 0.06400000303983688, 0.9760000463575125, 0.0, 0.0, 0.0, 0.0, 0.0, 1.7564100352463384E9, 0.0, 2025-08-28 16:40:35.246
79.0, -2156.9181112949736, -99.33548272307962, -11097.91750481259, -11842.9579345854, 0.01600000075995922, 0.06400000303983688, 0.9760000463575125, 0.0, 0.0, 0.0, 0.0, 0.0, 1.7564100352463384E9, 0.0, 2025-08-28 16:40:35.246
80.0, -1953.187061208766, 1.2266871854662895, -11291.526515668724, -11978.864029025193, 0.01600000075995922, 0.06400000303983688, 0.9760000463575125, 0.0, 0.0, 0.0, 0.0, 0.0, 1.756410035262069E9, 0.0, 2025-08-28 16:40:35.262
80.0, -1722.7980042384006, 76.38745659496635, -11176.612479680218, -11892.320874100551, 0.01600000075995922, 0.06400000303983688, 0.9760000463575125, 0.0, 0.0, 0.0, 0.0, 0.0, 1.756410035262069E9, 0.0, 2025-08-28 16:40:35.262
81.0, -1586.7759728999808, -84.4095419999212, -11302.912641083822, -12056.296787657775, 0.01600000075995922, 0.06400000303983688, 0.9760000463575125, 0.0, 0.0, 0.0, 0.0, 0.0, 1.7564100352627923E9, 0.0, 2025-08-28 16:40:35.262
81.0, -1600.3929486386478, -53.15145817026496, -11355.31424931297, -12048.585113949142, 0.01600000075995922, 0.06400000303983688, 0.9760000463575125, 0.0, 0.0, 0.0, 0.0, 0.0, 1.7564100352627923E9, 0.0, 2025-08-28 16:40:35.262
82.0, -1708.9753340021707, 105.11362815462053, -11416.607469686773, -12119.385160010308, 0.0, 0.06400000303983688, 0.9760000463575125, 0.0, 0.0, 0.0, 0.0, 0.0, 1.7564100352763383E9, 0.0, 2025-08-28 16:40:35.276
82.0, -1484.1942570153624, -40.895806015469134, -11197.361444634385, -12000.132840073202, 0.0, 0.06400000303983688, 0.9760000463575125, 0.0, 0.0, 0.0, 0.0, 0.0, 1.7564100352763383E9, 0.0, 2025-08-28 16:40:35.276
83.0, -1688.4264536956325, -101.15307410154492, -11298.673464484047, -12066.114025041461, 0.0, 0.06400000303983688, 0.9760000463575125, 0.0, 0.0, 0.0, 0.0, 0.0, 1.7564100352920575E9, 0.0, 2025-08-28 16:40:35.292
83.0, -1796.7657455620356, 68.7356212856248, -11172.57525767805, -11874.029023417272, 0.0, 0.06400000303983688, 0.9760000463575125, 0.0, 0.0, 0.0, 0.0, 0.0, 1.7564100352920575E9, 0.0, 2025-08-28 16:40:35.292
84.0, -1823.3078155475669, 28.96926505677402, -11124.956981492229, -11882.929985311814, 0.0, 0.06400000303983688, 0.9760000463575125, 0.0, 0.0, 0.0, 0.0, 0.0, 1.7564100352927842E9, 0.0, 2025-08-28 16:40:35.292
84.0, -1675.1498088529333, -95.0832164734602, -11047.238120513037, -11796.687892333604, 0.0, 0.06400000303983688, 0.9760000463575125, 0.0, 0.0, 0.0, 0.0, 0.0, 1.7564100352927842E9, 0.0, 2025-08-28 16:40:35.292
85.0, -1458.3216291218996, 6.885155818425119, -11259.161421452183, -11948.787753581535, 0.0, 0.06400000303983688, 0.9760000463575125, 0.0, 0.0, 0.0, 0.0, 0.0, 1.7564100353063543E9, 0.0, 2025-08-28 16:40:35.306
85.0, -1234.3951192749664, 80.86785674188286, -11143.570463571697, -11849.700974205509, 0.0, 0.06400000303983688, 0.9760000463575125, 0.0, 0.0, 0.0, 0.0, 0.0, 1.7564100353063543E9, 0.0, 2025-08-28 16:40:35.306
86.0, -1104.9440921586938, -79.21108106151223, -11260.584453385323, -12021.796210566536, 0.0, 0.06400000303983688, 0.9760000463575125, 0.0, 0.0, 0.0, 0.0, 0.0, 1.7564100353221166E9, 0.0, 2025-08-28 16:40:35.322
86.0, -1109.1776589085348, -50.60458630044013, -11295.778781918343, -12021.209046273492, 0.0, 0.06400000303983688, 0.9760000463575125, 0.0, 0.0, 0.0, 0.0, 0.0, 1.7564100353221166E9, 0.0, 2025-08-28 16:40:35.322
87.0, -1216.286523689516, 97.55155044421554, -11394.33636545064, -12095.644275091588, 0.0, 0.06400000303983688, 0.9760000463575125, 0.0, 0.0, 0.0, 0.0, 0.0, 1.756410035322831E9, 0.0, 2025-08-28 16:40:35.322
87.0, -1458.0411366252229, -40.035629025660455, -11179.832533542067, -11942.79643385252, 0.0, 0.06400000303983688, 0.9760000463575125, 0.0, 0.0, 0.0, 0.0, 0.0, 1.756410035322831E9, 0.0, 2025-08-28 16:40:35.322
88.0, -1667.411955844611, -93.84904948808253, -11268.051163646858, -12029.070315980352, 0.0, 0.06400000303983688, 0.9760000463575125, 0.0, 0.0, 0.0, 0.0, 0.0, 1.756410035336378E9, 0.0, 2025-08-28 16:40:35.336
88.0, -1799.873602425214, 65.95313571859151, -11165.708801359404, -11877.047122681513, 0.0, 0.06400000303983688, 0.9760000463575125, 0.0, 0.0, 0.0, 0.0, 0.0, 1.756410035336378E9, 0.0, 2025-08-28 16:40:35.336
89.0, -1829.3140948764049, 14.675367426127195, -11147.48239892535, -11902.31762668211, 0.0, 0.06400000303983688, 0.9760000463575125, 0.0, 0.0, 0.0, 0.0, 0.0, 1.756410035352054E9, 0.0, 2025-08-28 16:40:35.352
89.0, -1676.8365037329495, -90.92444772273302, -11045.573865032755, -11817.388238588348, 0.0, 0.06400000303983688, 0.9760000463575125, 0.0, 0.0, 0.0, 0.0, 0.0, 1.756410035352054E9, 0.0, 2025-08-28 16:40:35.352
90.0, -1454.4171735681593, 5.475213535130024, -11260.073957041372, -11970.561451123562, 0.0, 0.06400000303983688, 0.9760000463575125, 0.0, 0.0, 0.0, 0.0, 0.0, 1.7564100353528233E9, 0.0, 2025-08-28 16:40:35.352
90.0, -1243.8495863629505, 78.72115416731685, -11161.020836764947, -11904.707422753796, 0.0, 0.06400000303983688, 0.9760000463575125, 0.0, 0.0, 0.0, 0.0, 0.0, 1.7564100353528233E9, 0.0, 2025-08-28 16:40:35.352
91.0, -1121.3061544648372, -86.71332037262619, -11242.045769304968, -12039.283982759342, 0.0, 0.06400000303983688, 0.9760000463575125, 0.0, 0.0, 0.0, 0.0, 0.0, 1.7564100353663177E9, 0.0, 2025-08-28 16:40:35.366
91.0, -1098.4852849352174, -59.04180060047656, -11301.276434853207, -12029.668699973263, 0.0, 0.06400000303983688, 0.9760000463575125, 0.0, 0.0, 0.0, 0.0, 0.0, 1.7564100353663177E9, 0.0, 2025-08-28 16:40:35.366
92.0, -1222.8201289121062, 105.85786824580282, -11415.36956280144, -12100.292970736511, 0.0, 0.06400000303983688, 0.9760000463575125, 0.0, 0.0, 0.0, 0.0, 0.0, 1.7564100353820877E9, 0.0, 2025-08-28 16:40:35.382
92.0, -984.1116644903086, -34.91196608636528, -11182.439243811183, -11956.686422287952, 0.0, 0.06400000303983688, 0.9760000463575125, 0.0, 0.0, 0.0, 0.0, 0.0, 1.7564100353820877E9, 0.0, 2025-08-28 16:40:35.382
93.0, -1176.4061005120166, -86.15607527922839, -11281.836434883531, -12027.817449495196, 0.0, 0.06400000303983688, 0.9760000463575125, 0.0, 0.0, 0.0, 0.0, 0.0, 1.7564100353828151E9, 0.0, 2025-08-28 16:40:35.382
93.0, -1306.148839824833, 70.14930346887559, -11192.62860124046, -11879.620173851028, 0.0, 0.06400000303983688, 0.9760000463575125, 0.0, 0.0, 0.0, 0.0, 0.0, 1.7564100353828151E9, 0.0, 2025-08-28 16:40:35.382
94.0, -1334.4748420892283, 26.123201190494, -11158.38046739623, -11884.710177690722, 0.0, 0.06400000303983688, 0.9760000463575125, 0.0, 0.0, 0.0, 0.0, 0.0, 1.7564100353963935E9, 0.0, 2025-08-28 16:40:35.396
94.0, -1193.6732186074369, -103.77848387043923, -11065.993718790822, -11820.68309044931, 0.0, 0.06400000303983688, 0.9760000463575125, 0.0, 0.0, 0.0, 0.0, 0.0, 1.7564100353963935E9, 0.0, 2025-08-28 16:40:35.396
95.0, -964.7165433201008, 4.379422848112881, -11261.263245227281, -11958.634910164867, 0.0, 0.06400000303983688, 0.9760000463575125, 0.0, 0.0, 0.0, 0.0, 0.0, 1.7564100354120624E9, 0.0, 2025-08-28 16:40:35.412
95.0, -749.5114801698364, 77.8123584780842, -11166.114580504596, -11888.379019547254, 0.0, 0.06400000303983688, 0.9760000463575125, 0.0, 0.0, 0.0, 0.0, 0.0, 1.7564100354120624E9, 0.0, 2025-08-28 16:40:35.412
96.0, -620.4157435493544, -78.25366667285562, -11266.631871613674, -12026.983451805077, 0.0, 0.06400000303983688, 0.9760000463575125, 0.0, 0.0, 0.0, 0.0, 0.0, 1.7564100354127955E9, 0.0, 2025-08-28 16:40:35.412
96.0, -617.3565053856, -52.568033777177334, -11305.775534499902, -12016.033024734817, 0.0, 0.06400000303983688, 0.9760000463575125, 0.0, 0.0, 0.0, 0.0, 0.0, 1.7564100354127955E9, 0.0, 2025-08-28 16:40:35.412
97.0, -732.3677787729539, 99.6795535190031, -11435.348108364735, -12108.509530939162, 0.0, 0.06400000303983688, 0.9760000463575125, 0.0, 0.0, 0.0, 0.0, 0.0, 1.7564100354264157E9, 0.0, 2025-08-28 16:40:35.426
97.0, -499.7516113789752, -42.73957669362426, -11203.285446164198, -11958.515233366285, 0.0, 0.06400000303983688, 0.9760000463575125, 0.0, 0.0, 0.0, 0.0, 0.0, 1.7564100354264157E9, 0.0, 2025-08-28 16:40:35.426
98.0, -695.5353740593418, -96.85218915250152, -11296.706277107354, -12035.660019702278, 0.0, 0.06400000303983688, 0.9760000463575125, 0.0, 0.0, 0.0, 0.0, 0.0, 1.75641003544207E9, 0.0, 2025-08-28 16:40:35.442
98.0, -807.1695177867077, 74.27815301995724, -11217.876665841322, -11901.064760196954, 0.0, 0.06400000303983688, 0.9760000463575125, 0.0, 0.0, 0.0, 0.0, 0.0, 1.75641003544207E9, 0.0, 2025-08-28 16:40:35.442
99.0, -865.9682248900644, 21.212712548673153, -11153.499897954054, -11907.774140717462, 0.0, 0.06400000303983688, 0.9760000463575125, 0.0, 0.0, 0.0, 0.0, 0.0, 1.7564100354428425E9, 0.0, 2025-08-28 16:40:35.442
99.0, -702.1624767808244, -99.29808372352272, -11031.840952395461, -11789.843875414692, 0.0, 0.06400000303983688, 0.9760000463575125, 0.0, 0.0, 0.0, 0.0, 0.0, 1.7564100354428425E9, 0.0, 2025-08-28 16:40:35.442
100.0, -481.6467556934804, 11.743285860866308, -10787.229055893607, -11974.058257582132, 0.0, 0.06400000303983688, 0.9760000463575125, 0.0, 0.0, 0.0, 0.0, 0.0, 1.756410035457055E9, 0.0, 2025-08-28 16:40:35.457
100.0, -265.8620080500841, 77.5543053811416, -10696.770225715358, -11905.403044145554, 0.0, 0.06400000303983688, 0.9760000463575125, 0.0, 0.0, 0.0, 0.0, 0.0, 1.756410035457055E9, 0.0, 2025-08-28 16:40:35.457
0.0, -122.03293555416167, -84.66011529695243, -11710.086768959649, -13010.70055685006, 0.0, 0.06400000303983688, 0.9760000463575125, 0.0, 0.0, 0.0, 0.0, 0.0, 1.7564100354577913E9, 0.0, 2025-08-28 16:40:35.457
1.0, -121.59536725934595, -54.31456705648452, -11787.108138597105, -13028.35101469094, 0.0, 0.06400000303983688, 0.9760000463575125, 0.0, 0.0, 0.0, 0.0, 0.0, 1.756410035471377E9, 0.0, 2025-08-28 16:40:35.471
1.0, -248.38732550712302, 94.66434767842293, -11913.408300000709, -13131.284281171393, 0.0, 0.06400000303983688, 0.9760000463575125, 0.0, 0.0, 0.0, 0.0, 0.0, 1.756410035471377E9, 0.0, 2025-08-28 16:40:35.471
2.0, -4.772112343460321, -48.540161524899304, -12145.861781746615, -12937.779987514019, 0.0, 0.06400000303983688, 0.9760000463575125, 0.0, 0.0, 0.0, 0.0, 0.0, 1.7564100354870143E9, 0.0, 2025-08-28 16:40:35.487
2.0, -204.49398967716843, -94.47361278068274, -12247.76096588932, -13017.658640717622, 0.0, 0.06400000303983688, 0.9760000463575125, 0.0, 0.0, 0.0, 0.0, 0.0, 1.7564100354870143E9, 0.0, 2025-08-28 16:40:35.487
3.0, -327.9611768643372, 71.27501335553825, -12210.22359003406, -12907.27923342539, 0.0, 0.06400000303983688, 0.9760000463575125, 0.0, 0.0, 0.0, 0.0, 0.0, 1.756410035487766E9, 0.0, 2025-08-28 16:40:35.487
3.0, -367.1141895004548, 18.729418978095055, -12127.846683660056, -12887.949560504407, 0.0, 0.06400000303983688, 0.9760000463575125, 0.0, 0.0, 0.0, 0.0, 0.0, 1.756410035487766E9, 0.0, 2025-08-28 16:40:35.487
4.0, -212.0598072875291, -103.59522877261043, -11994.02558344556, -12773.691876958124, 0.0, 0.06400000303983688, 0.9760000463575125, 0.0, 0.0, 0.0, 0.0, 0.0, 1.7564100355013635E9, 0.0, 2025-08-28 16:40:35.501
4.0, 18.14973448496312, 4.248526349663734, -12232.15062347427, -12964.514662347268, 0.0, 0.06400000303983688, 0.9760000463575125, 0.0, 0.0, 0.0, 0.0, 0.0, 1.7564100355013635E9, 0.0, 2025-08-28 16:40:35.501
5.0, 221.6227314742282, 77.68894177954644, -12144.01801106846, -12887.429714410566, 0.0, 0.06400000303983688, 0.9760000463575125, 0.0, 0.0, 0.0, 0.0, 0.0, 1.7564100355171332E9, 0.0, 2025-08-28 16:40:35.517
5.0, 352.46500137401745, -80.80053854268044, -12218.980565780308, -12998.90117248986, 0.0, 0.06400000303983688, 0.9760000463575125, 0.0, 0.0, 0.0, 0.0, 0.0, 1.7564100355171332E9, 0.0, 2025-08-28 16:40:35.517
6.0, 373.25136532774195, -47.43315113801509, -12288.327660708688, -12998.070914699696, 0.0, 0.06400000303983688, 0.9760000463575125, 0.0, 0.0, 0.0, 0.0, 0.0, 1.7564100355177956E9, 0.0, 2025-08-28 16:40:35.517
6.0, 243.7778988117352, 102.89586748089641, -12418.797810562886, -13098.86869830545, 0.0, 0.06400000303983688, 0.9760000463575125, 0.0, 0.0, 0.0, 0.0, 0.0, 1.7564100355177956E9, 0.0, 2025-08-28 16:40:35.517
7.0, 482.5162824331783, -48.97398991975933, -12644.156702092849, -12913.704381549265, 0.0, 0.06400000303983688, 0.9760000463575125, 0.0, 0.0, 0.0, 0.0, 0.0, 1.7564100355313604E9, 0.0, 2025-08-28 16:40:35.531
7.0, 279.94460133323446, -88.06716415658593, -12757.96372769447, -12978.672053629532, 0.0, 0.06400000303983688, 0.9760000463575125, 0.0, 0.0, 0.0, 0.0, 0.0, 1.7564100355313604E9, 0.0, 2025-08-28 16:40:35.531
8.0, 168.3067177059129, 71.73128115013242, -12709.072015573736, -12894.677640524693, 0.0, 0.06400000303983688, 0.9760000463575125, 0.0, 0.0, 0.0, 0.0, 0.0, 1.7564100355634687E9, 0.0, 2025-08-28 16:40:35.563
8.0, 120.6117735709995, 9.712520184926689, -12637.679195369594, -12888.893885243218, 0.0, 0.06400000303983688, 0.9760000463575125, 0.0, 0.0, 0.0, 0.0, 0.0, 1.7564100355634687E9, 0.0, 2025-08-28 16:40:35.563
9.0, 278.87498994590715, -101.68787979520857, -12505.421373336576, -12781.94770611031, 0.0, 0.06400000303983688, 0.9760000463575125, 0.0, 0.0, 0.0, 0.0, 0.0, 1.756410035564168E9, 0.0, 2025-08-28 16:40:35.564
9.0, 502.94361599115655, 10.101469780318439, -12290.519242082722, -12984.633454158902, 0.0, 0.06400000303983688, 0.9760000463575125, 0.0, 0.0, 0.0, 0.0, 0.0, 1.756410035564168E9, 0.0, 2025-08-28 16:40:35.564
10.0, 704.434466003906, 74.52498641703278, -12194.409423071425, -12923.237386536319, 0.0, 0.06400000303983688, 0.9760000463575125, 0.0, 0.0, 0.0, 0.0, 0.0, 1.756410035564929E9, 0.0, 2025-08-28 16:40:35.564
10.0, 841.8552199257538, -89.90345503482968, -12226.894194086548, -13006.8316303459, 0.0, 0.06400000303983688, 0.9760000463575125, 0.0, 0.0, 0.0, 0.0, 0.0, 1.756410035564929E9, 0.0, 2025-08-28 16:40:35.564
11.0, 868.3524111118168, -51.50964208971709, -12290.657618381083, -13028.719394836575, 0.0, 0.06400000303983688, 0.9760000463575125, 0.0, 0.0, 0.0, 0.0, 0.0, 1.7564100355656717E9, 0.0, 2025-08-28 16:40:35.565
11.0, 739.6157048870809, 102.51439768541604, -12416.542650889605, -13124.236439704895, 0.0, 0.06400000303983688, 0.9760000463575125, 0.0, 0.0, 0.0, 0.0, 0.0, 1.7564100355656717E9, 0.0, 2025-08-28 16:40:35.565
12.0, 960.2417530231178, -46.16158515308052, -12644.994439682923, -12951.847621197347, 0.0, 0.06400000303983688, 0.9760000463575125, 0.0, 0.0, 0.0, 0.0, 0.0, 1.756410035576403E9, 0.0, 2025-08-28 16:40:35.576
12.0, 771.8143735555932, -89.29759124200791, -12707.519957092125, -12974.247751981951, 0.0, 0.06400000303983688, 0.9760000463575125, 0.0, 0.0, 0.0, 0.0, 0.0, 1.756410035576403E9, 0.0, 2025-08-28 16:40:35.576
13.0, 665.4572286657058, 77.75999987870455, -12691.382288783323, -12878.951361211017, 0.0, 0.06400000303983688, 0.9760000463575125, 0.0, 0.0, 0.0, 0.0, 0.0, 1.7564100355913835E9, 0.0, 2025-08-28 16:40:35.591
13.0, 623.2038389663212, 20.367495158687234, -12623.101065342315, -12873.694931823295, 0.0, 0.06400000303983688, 0.9760000463575125, 0.0, 0.0, 0.0, 0.0, 0.0, 1.7564100355913835E9, 0.0, 2025-08-28 16:40:35.591
14.0, 775.7450084090233, -102.12544809002429, -12473.748160611838, -12751.684435668867, 0.0, 0.06400000303983688, 0.9760000463575125, 0.0, 0.0, 0.0, 0.0, 0.0, 1.756410035607091E9, 0.0, 2025-08-28 16:40:35.607
14.0, 1005.5581207862124, 7.984686405397952, -12259.44815325085, -12958.82066466473, 0.0, 0.06400000303983688, 0.9760000463575125, 0.0, 0.0, 0.0, 0.0, 0.0, 1.756410035607091E9, 0.0, 2025-08-28 16:40:35.607
15.0, 1207.8567891893908, 78.32472477201372, -12184.098518893588, -12901.972315388266, 0.0, 0.06400000303983688, 0.9760000463575125, 0.0, 0.0, 0.0, 0.0, 0.0, 1.7564100356078207E9, 0.0, 2025-08-28 16:40:35.607
15.0, 1334.2336185420863, -87.76797216013074, -12208.321850906592, -12984.31369271269, 0.0, 0.06400000303983688, 0.9760000463575125, 0.0, 0.0, 0.0, 0.0, 0.0, 1.7564100356078207E9, 0.0, 2025-08-28 16:40:35.607
16.0, 1353.7110175113194, -47.86697953287512, -12251.785098241642, -13010.203150155954, 0.0, 0.06400000303983688, 0.9760000463575125, 0.0, 0.0, 0.0, 0.0, 0.0, 1.7564100356213417E9, 0.0, 2025-08-28 16:40:35.621
16.0, 1230.673918819055, 99.04377052653581, -12421.778510827571, -13126.312084180303, 0.0, 0.06400000303983688, 0.9760000463575125, 0.0, 0.0, 0.0, 0.0, 0.0, 1.7564100356213417E9, 0.0, 2025-08-28 16:40:35.621
17.0, 1466.1398899792694, -44.2804154753685, -12639.212554351427, -12923.274785535876, 0.0, 0.06400000303983688, 0.9760000463575125, 0.0, 0.0, 0.0, 0.0, 0.0, 1.7564100356371045E9, 0.0, 2025-08-28 16:40:35.637
17.0, 1270.9358117920347, -81.8925893297419, -12724.585120589938, -12974.539464178495, 0.0, 0.06400000303983688, 0.9760000463575125, 0.0, 0.0, 0.0, 0.0, 0.0, 1.7564100356371045E9, 0.0, 2025-08-28 16:40:35.637
18.0, 1156.4967430979013, 70.97956125903875, -12714.147059813607, -12919.121626635082, 0.0, 0.06400000303983688, 0.9760000463575125, 0.0, 0.0, 0.0, 0.0, 0.0, 1.7564100356378248E9, 0.0, 2025-08-28 16:40:35.637
18.0, 1108.5213064663112, 15.816036912612617, -12630.771600151435, -12910.17765589105, 0.0, 0.06400000303983688, 0.9760000463575125, 0.0, 0.0, 0.0, 0.0, 0.0, 1.7564100356378248E9, 0.0, 2025-08-28 16:40:35.637
19.0, 1260.6884859134443, -105.34176205191761, -12471.044212943874, -12761.913062047679, 0.0, 0.06400000303983688, 0.9760000463575125, 0.0, 0.0, 0.0, 0.0, 0.0, 1.7564100356513505E9, 0.0, 2025-08-28 16:40:35.651
19.0, 1498.441405896563, 5.134882639162242, -12290.55664108228, -12955.963381098583, 0.0, 0.06400000303983688, 0.9760000463575125, 0.0, 0.0, 0.0, 0.0, 0.0, 1.7564100356513505E9, 0.0, 2025-08-28 16:40:35.651
20.0, 1702.5090469787829, 75.27670630812645, -12189.74576782668, -12916.531745915767, 0.0, 0.06400000303983688, 0.9760000463575125, 0.0, 0.0, 0.0, 0.0, 0.0, 1.756410035667062E9, 0.0, 2025-08-28 16:40:35.667
20.0, 1828.1827751398087, -77.22519418504089, -12217.91095439298, -12993.689621901605, 0.0, 0.06400000303983688, 0.9760000463575125, 0.0, 0.0, 0.0, 0.0, 0.0, 1.756410035667062E9, 0.0, 2025-08-28 16:40:35.667
21.0, 1846.859835518524, -48.00535583123565, -12276.08322825376, -13015.14355799742, 0.0, 0.06400000303983688, 0.9760000463575125, 0.0, 0.0, 0.0, 0.0, 0.0, 1.7564100356677904E9, 0.0, 2025-08-28 16:40:35.667
21.0, 1714.1214363412, 95.83119646459818, -12455.583466527052, -13170.745835553855, 0.0, 0.06400000303983688, 0.9760000463575125, 0.0, 0.0, 0.0, 0.0, 0.0, 1.7564100356677904E9, 0.0, 2025-08-28 16:40:35.667
22.0, 1950.8440138865262, -50.00246240757406, -12665.103881744668, -12967.439264112618, 0.0, 0.06400000303983688, 0.9760000463575125, 0.0, 0.0, 0.0, 0.0, 0.0, 1.7564100356813643E9, 0.0, 2025-08-28 16:40:35.681
22.0, 1748.1863150876015, -87.41642156429589, -12754.635216733906, -12998.568321393803, 0.0, 0.06400000303983688, 0.9760000463575125, 0.0, 0.0, 0.0, 0.0, 0.0, 1.7564100356813643E9, 0.0, 2025-08-28 16:40:35.681
23.0, 1643.216673081275, 69.32278557866812, -12717.479310674127, -12936.011014834978, 0.0, 0.06400000303983688, 0.9760000463575125, 0.0, 0.0, 0.0, 0.0, 0.0, 1.7564100356970935E9, 0.0, 2025-08-28 16:40:35.697
23.0, 1600.028308392968, 7.958507105708122, -12658.031730928458, -12913.704381549265, 0.0, 0.06400000303983688, 0.9760000463575125, 0.0, 0.0, 0.0, 0.0, 0.0, 1.7564100356970935E9, 0.0, 2025-08-28 16:40:35.697
24.0, 1760.6177425403148, -106.41137343924493, -12491.67350109946, -12768.169914673548, 0.0, 0.06400000303983688, 0.9760000463575125, 0.0, 0.0, 0.0, 0.0, 0.0, 1.7564100356978095E9, 0.0, 2025-08-28 16:40:35.697
24.0, 1977.9844678649679, 9.353489789180458, -12289.539388294332, -12993.818648450077, 0.0, 0.06400000303983688, 0.9760000463575125, 0.0, 0.0, 0.0, 0.0, 0.0, 1.7564100356978095E9, 0.0, 2025-08-28 16:40:35.697
25.0, 2183.050662235357, 72.1838090447709, -12228.603328366298, -12959.417178707663, 0.0, 0.06400000303983688, 0.9760000463575125, 0.0, 0.0, 0.0, 0.0, 0.0, 1.756410035711373E9, 0.0, 2025-08-28 16:40:35.711
25.0, 2304.524482746143, -91.32835691794753, -12235.671739282552, -13032.487344041932, 0.0, 0.06400000303983688, 0.9760000463575125, 0.0, 0.0, 0.0, 0.0, 0.0, 1.756410035711373E9, 0.0, 2025-08-28 16:40:35.711
26.0, 2327.689423071686, -49.20212381705642, -12307.17301658541, -13042.05961797852, 0.0, 0.06400000303983688, 0.9760000463575125, 0.0, 0.0, 0.0, 0.0, 0.0, 1.756410035727069E9, 0.0, 2025-08-28 16:40:35.727
26.0, 2199.981189334765, 94.58954967930913, -12463.953362627886, -13202.987513071857, 0.0, 0.06400000303983688, 0.9760000463575125, 0.0, 0.0, 0.0, 0.0, 0.0, 1.756410035727069E9, 0.0, 2025-08-28 16:40:35.727
27.0, 2443.181273603346, -47.62762593571097, -12650.574370416813, -12972.405851253774, 0.0, 0.06400000303983688, 0.9760000463575125, 0.0, 0.0, 0.0, 0.0, 0.0, 1.7564100357277956E9, 0.0, 2025-08-28 16:40:35.727
27.0, 2251.9190499694087, -95.11313567310572, -12739.656917411368, -13002.427898148075, 0.0, 0.06400000303983688, 0.9760000463575125, 0.0, 0.0, 0.0, 0.0, 0.0, 1.7564100357277956E9, 0.0, 2025-08-28 16:40:35.727
28.0, 2137.341604976915, 71.23761435598135, -12748.2549474095, -12976.630068253726, 0.0, 0.06400000303983688, 0.9760000463575125, 0.0, 0.0, 0.0, 0.0, 0.0, 1.7564100357413728E9, 0.0, 2025-08-28 16:40:35.741
28.0, 2088.7790040522814, 10.714813373051584, -12655.54843735788, -12931.188413842116, 0.0, 0.06400000303983688, 0.9760000463575125, 0.0, 0.0, 0.0, 0.0, 0.0, 1.7564100357413728E9, 0.0, 2025-08-28 16:40:35.741
29.0, 2251.732054971624, -99.05125032644719, -12467.947575780563, -12756.912815806922, 0.0, 0.06400000303983688, 0.9760000463575125, 0.0, 0.0, 0.0, 0.0, 0.0, 1.756410035757069E9, 0.0, 2025-08-28 16:40:35.757
29.0, 2468.7360100005753, 10.909288170747459, -12281.37518669106, -12988.08912171796, 0.0, 0.06400000303983688, 0.9760000463575125, 0.0, 0.0, 0.0, 0.0, 0.0, 1.756410035757069E9, 0.0, 2025-08-28 16:40:35.757
30.0, 2678.944566810038, 68.27187369111925, -12205.094317244831, -12952.004696995486, 0.0, 0.06400000303983688, 0.9760000463575125, 0.0, 0.0, 0.0, 0.0, 0.0, 1.756410035757824E9, 0.0, 2025-08-28 16:40:35.757
30.0, 2810.501157601364, -83.72888020798564, -12204.926021746825, -12986.696008984465, 0.0, 0.06400000303983688, 0.9760000463575125, 0.0, 0.0, 0.0, 0.0, 0.0, 1.756410035757824E9, 0.0, 2025-08-28 16:40:35.757
31.0, 2830.6816577622667, -46.890865644440055, -12305.404043906368, -13026.419356363826, 0.0, 0.06400000303983688, 0.9760000463575125, 0.0, 0.0, 0.0, 0.0, 0.0, 1.756410035771338E9, 0.0, 2025-08-28 16:40:35.771
31.0, 2696.443558702711, 96.83722955267876, -12471.070392243564, -13190.982434214093, 0.0, 0.06400000303983688, 0.9760000463575125, 0.0, 0.0, 0.0, 0.0, 0.0, 1.756410035771338E9, 0.0, 2025-08-28 16:40:35.771
32.0, 2926.714808824472, -44.13455937709659, -12667.949945610948, -12952.591861288529, 0.01600000075995922, 0.06400000303983688, 0.9760000463575125, 0.0, 0.0, 0.0, 0.0, 0.0, 1.756410035787109E9, 0.0, 2025-08-28 16:40:35.787
32.0, 2740.8305613268167, -91.33583671785891, -12729.14779853588, -13002.124966251664, 0.01600000075995922, 0.06400000303983688, 0.9760000463575125, 0.0, 0.0, 0.0, 0.0, 0.0, 1.756410035787109E9, 0.0, 2025-08-28 16:40:35.787
33.0, 2626.346613833215, 76.00224689953029, -12747.349891620222, -12955.555732003413, 0.01600000075995922, 0.06400000303983688, 0.9760000463575125, 0.0, 0.0, 0.0, 0.0, 0.0, 1.7564100357878273E9, 0.0, 2025-08-28 16:40:35.787
33.0, 2569.937702801544, 22.46931893378496, -12669.950792087242, -12927.882342281286, 0.01600000075995922, 0.06400000303983688, 0.9760000463575125, 0.0, 0.0, 0.0, 0.0, 0.0, 1.7564100357878273E9, 0.0, 2025-08-28 16:40:35.787
34.0, 2727.1948860883713, -104.10759506653994, -12493.337756579742, -12775.978825781029, 0.01600000075995922, 0.06400000303983688, 0.9760000463575125, 0.0, 0.0, 0.0, 0.0, 0.0, 1.7564100358013625E9, 0.0, 2025-08-28 16:40:35.801
34.0, 2963.294770291075, 11.201000367291272, -12307.303913083859, -13009.481349464506, 0.01600000075995922, 0.06400000303983688, 0.9760000463575125, 0.0, 0.0, 0.0, 0.0, 0.0, 1.7564100358013625E9, 0.0, 2025-08-28 16:40:35.801
35.0, 3160.5557934539393, 70.03710647020489, -12257.228522627149, -13006.259425652679, 0.01600000075995922, 0.06400000303983688, 0.9760000463575125, 0.0, 0.0, 0.0, 0.0, 0.0, 1.756410035817062E9, 0.0, 2025-08-28 16:40:35.817
35.0, 3297.4754007817246, -83.57180440984666, -12232.380627321545, -13006.18088775361, 0.01600000075995922, 0.06400000303983688, 0.9760000463575125, 0.0, 0.0, 0.0, 0.0, 0.0, 1.756410035817062E9, 0.0, 2025-08-28 16:40:35.817
36.0, 3317.7643580413423, -42.017776002176106, -12299.23320897948, -13034.175908871926, 0.01600000075995922, 0.06400000303983688, 0.9760000463575125, 0.0, 0.0, 0.0, 0.0, 0.0, 1.7564100358177905E9, 0.0, 2025-08-28 16:40:35.817
36.0, 3178.675608739257, 92.08755660895258, -12504.355501849204, -13220.497724664398, 0.01600000075995922, 0.06400000303983688, 0.9760000463575125, 0.0, 0.0, 0.0, 0.0, 0.0, 1.7564100358177905E9, 0.0, 2025-08-28 16:40:35.817
37.0, 3418.5023032478057, -47.642585535533726, -12677.916778992862, -13447.173060978763, 0.01600000075995922, 0.06400000303983688, 0.9760000463575125, 0.0, 0.0, 0.0, 0.0, 0.0, 1.7564100358313448E9, 0.0, 2025-08-28 16:40:35.831
37.0, 3224.588490545284, -89.05449774488807, -12738.332992827054, -13500.300209799316, 0.01600000075995922, 0.06400000303983688, 0.9760000463575125, 0.0, 0.0, 0.0, 0.0, 0.0, 1.7564100358313448E9, 0.0, 2025-08-28 16:40:35.831
38.0, 3117.2402721671388, 69.9585685711354, -12786.671199754346, -13476.693961279001, 0.01600000075995922, 0.06400000303983688, 0.9760000463575125, 0.0, 0.0, 0.0, 0.0, 0.0, 1.7564100358470705E9, 0.0, 2025-08-28 16:40:35.847
38.0, 3047.999764387496, 5.924001529812813, -12686.55220799055, -13465.109621166252, 0.01600000075995922, 0.06400000303983688, 0.9760000463575125, 0.0, 0.0, 0.0, 0.0, 0.0, 1.7564100358470705E9, 0.0, 2025-08-28 16:40:35.847
39.0, 3232.3974016527645, -105.77559044677764, -12455.789161024615, -13256.857032033615, 0.01600000075995922, 0.06400000303983688, 0.9760000463575125, 0.0, 0.0, 0.0, 0.0, 0.0, 1.7564100358478374E9, 0.0, 2025-08-28 16:40:35.847
39.0, 3461.9113220334984, 13.744132337160408, -12279.617433711886, -13493.041063985322, 0.01600000075995922, 0.06400000303983688, 0.9760000463575125, 0.0, 0.0, 0.0, 0.0, 0.0, 1.7564100358478374E9, 0.0, 2025-08-28 16:40:35.847
40.0, 3654.9986168458126, 73.41797603014857, -12232.967791614588, -13473.000810072757, 0.01600000075995922, 0.06400000303983688, 0.9760000463575125, 0.0, 0.0, 0.0, 0.0, 0.0, 1.7564100358613398E9, 0.0, 2025-08-28 16:40:35.861
40.0, 3792.411890967749, -91.8594227116555, -12197.846391130704, -13490.840132861398, 0.01600000075995922, 0.06400000303983688, 0.9760000463575125, 0.0, 0.0, 0.0, 0.0, 0.0, 1.7564100358613398E9, 0.0, 2025-08-28 16:40:35.861
41.0, 3807.7230413863435, -50.41759130265564, -12294.846306331456, -13516.430398308206, 0.01600000075995922, 0.06400000303983688, 0.9760000463575125, 0.0, 0.0, 0.0, 0.0, 0.0, 1.7564100358770547E9, 0.0, 2025-08-28 16:40:35.877
41.0, 3670.156431366224, 90.26996523048729, -12521.405705747195, -13704.229474583175, 0.01600000075995922, 0.06400000303983688, 0.9760000463575125, 0.0, 0.0, 0.0, 0.0, 0.0, 1.7564100358770547E9, 0.0, 2025-08-28 16:40:35.877
42.0, 3894.8028719546273, -52.8410464739427, -12661.554716686718, -13463.213491888717, 0.01600000075995922, 0.06400000303983688, 0.9760000463575125, 0.0, 0.0, 0.0, 0.0, 0.0, 1.7564100358777888E9, 0.0, 2025-08-28 16:40:35.877
42.0, 3713.208289706148, -92.96269319858402, -12717.853300669696, -13485.0077588805, 0.01600000075995922, 0.06400000303983688, 0.9760000463575125, 0.0, 0.0, 0.0, 0.0, 0.0, 1.7564100358777888E9, 0.0, 2025-08-28 16:40:35.877
43.0, 3606.4808947206475, 69.23676787968725, -12775.316863488872, -13484.809544182848, 0.01600000075995922, 0.06400000303983688, 0.9760000463575125, 0.0, 0.0, 0.0, 0.0, 0.0, 1.7564100358914268E9, 0.0, 2025-08-28 16:40:35.891
43.0, 3552.514138360042, 7.031011916697025, -12688.07060737256, -13450.355715841055, 0.01600000075995922, 0.06400000303983688, 0.9760000463575125, 0.0, 0.0, 0.0, 0.0, 0.0, 1.7564100358914268E9, 0.0, 2025-08-28 16:40:35.891
44.0, 3709.5244882497936, -103.46807217411697, -12458.672623890452, -13233.60607400909, 0.01600000075995922, 0.06400000303983688, 0.9760000463575125, 0.0, 0.0, 0.0, 0.0, 0.0, 1.7564100359070923E9, 0.0, 2025-08-28 16:40:35.907
44.0, 3936.887966156006, 10.729772972874343, -12325.988453262486, -13036.681641842239, 0.01600000075995922, 0.06400000303983688, 0.9760000463575125, 0.0, 0.0, 0.0, 0.0, 0.0, 1.7564100359070923E9, 0.0, 2025-08-28 16:40:35.907
45.0, 4143.5024791080505, 64.86108493153006, -12286.74755297741, -13024.36802123813, 0.01600000075995922, 0.06400000303983688, 0.9760000463575125, 0.0, 0.0, 0.0, 0.0, 0.0, 1.7564100359077935E9, 0.0, 2025-08-28 16:40:35.907
45.0, 4263.581316935364, -92.33065010607243, -12238.850654244889, -13010.27607820509, 0.01600000075995922, 0.06400000303983688, 0.9760000463575125, 0.0, 0.0, 0.0, 0.0, 0.0, 1.7564100359077935E9, 0.0, 2025-08-28 16:40:35.907
46.0, 4284.524756687228, -47.10403994191438, -12323.852970387787, -13056.06554331258, 0.01600000075995922, 0.06400000303983688, 0.9760000463575125, 0.0, 0.0, 0.0, 0.0, 0.0, 1.756410035921418E9, 0.0, 2025-08-28 16:40:35.921
46.0, 4164.187865762971, 87.95122725795954, -12539.993008526973, -13238.99526984524, 0.01600000075995922, 0.06400000303983688, 0.9760000463575125, 0.0, 0.0, 0.0, 0.0, 0.0, 1.756410035921418E9, 0.0, 2025-08-28 16:40:35.921
47.0, 4378.979669968132, -47.51916883699596, -12690.434224144556, -13480.158978587948, 0.01600000075995922, 0.06400000303983688, 0.9760000463575125, 0.0, 0.0, 0.0, 0.0, 0.0, 1.756410035937078E9, 0.0, 2025-08-28 16:40:35.937
47.0, 4205.373514025006, -92.92529419902712, -12725.306921281386, -13489.809790423606, 0.01600000075995922, 0.06400000303983688, 0.9760000463575125, 0.0, 0.0, 0.0, 0.0, 0.0, 1.756410035937078E9, 0.0, 2025-08-28 16:40:35.937
48.0, 4095.5644414760172, 69.62945737503469, -12806.743242816534, -13511.374053568114, 0.01600000075995922, 0.06400000303983688, 0.9760000463575125, 0.0, 0.0, 0.0, 0.0, 0.0, 1.7564100359377725E9, 0.0, 2025-08-28 16:40:35.937
48.0, 4041.7248417139053, 5.288218537345529, -12710.173416110687, -13486.314853915013, 0.01600000075995922, 0.06400000303983688, 0.9760000463575125, 0.0, 0.0, 0.0, 0.0, 0.0, 1.7564100359377725E9, 0.0, 2025-08-28 16:40:35.937
49.0, 4189.4527599136345, -100.92494020424783, -12468.916209869087, -13265.567259030417, 0.01600000075995922, 0.06400000303983688, 0.9760000463575125, 0.0, 0.0, 0.0, 0.0, 0.0, 1.756410035951386E9, 0.0, 2025-08-28 16:40:35.951
49.0, 4428.368788782973, 7.274105413816869, -12327.245059647597, -13061.959625642747, 0.01600000075995922, 0.06400000303983688, 0.9760000463575125, 0.0, 0.0, 0.0, 0.0, 0.0, 1.756410035951386E9, 0.0, 2025-08-28 16:40:35.951
50.0, 4623.471889671404, 66.9554289067164, -12276.21225480223, -13047.450683764648, 0.01600000075995922, 0.06400000303983688, 0.9760000463575125, 0.0, 0.0, 0.0, 0.0, 0.0, 1.7564100359670756E9, 0.0, 2025-08-28 16:40:35.967
50.0, 4741.340446624905, -90.55793752707541, -12227.698272577021, -13031.114800758194, 0.01600000075995922, 0.06400000303983688, 0.9760000463575125, 0.0, 0.0, 0.0, 0.0, 0.0, 1.7564100359670756E9, 0.0, 2025-08-28 16:40:35.967
51.0, 4782.707480034791, -54.36692565586418, -12322.551485203207, -13087.275008442812, 0.01600000075995922, 0.06400000303983688, 0.9760000463575125, 0.0, 0.0, 0.0, 0.0, 0.0, 1.7564100359678044E9, 0.0, 2025-08-28 16:40:35.967
51.0, 4641.180315961596, 92.80187750048935, -12525.710330596194, -13264.890337138437, 0.01600000075995922, 0.06400000303983688, 0.9760000463575125, 0.0, 0.0, 0.0, 0.0, 0.0, 1.7564100359678044E9, 0.0, 2025-08-28 16:40:35.967
52.0, 4865.8342363499105, -48.22600992862135, -12699.140711241402, -13508.185788855888, 0.0, 0.06400000303983688, 0.9760000463575125, 0.0, 0.0, 0.0, 0.0, 0.0, 1.7564100359813673E9, 0.0, 2025-08-28 16:40:35.981
52.0, 4683.58143170923, -97.37203524634242, -12724.910491886083, -13521.479263248388, 0.0, 0.06400000303983688, 0.9760000463575125, 0.0, 0.0, 0.0, 0.0, 0.0, 1.7564100359813673E9, 0.0, 2025-08-28 16:40:35.981
53.0, 4572.84486397123, 69.24798757955432, -12818.239695280325, -13530.836492937524, 0.0, 0.06400000303983688, 0.9760000463575125, 0.0, 0.0, 0.0, 0.0, 0.0, 1.7564100359970524E9, 0.0, 2025-08-28 16:40:35.997
53.0, 4520.40024689259, 9.331050389446318, -12721.475393776782, -13476.822987827472, 0.0, 0.06400000303983688, 0.9760000463575125, 0.0, 0.0, 0.0, 0.0, 0.0, 1.7564100359970524E9, 0.0, 2025-08-28 16:40:35.997
54.0, 4692.1495425077155, -108.61791441310197, -12502.549130170606, -13276.55882500019, 0.0, 0.06400000303983688, 0.9760000463575125, 0.0, 0.0, 0.0, 0.0, 0.0, 1.7564100359978068E9, 0.0, 2025-08-28 16:40:35.997
54.0, 4915.518807261251, 9.001939193345606, -12366.80946127884, -13067.835008473136, 0.0, 0.06400000303983688, 0.9760000463575125, 0.0, 0.0, 0.0, 0.0, 0.0, 1.7564100359978068E9, 0.0, 2025-08-28 16:40:35.997
55.0, 5091.271665778942, 53.338453168049455, -12299.777364423033, -13049.11493924493, 0.0, 0.06400000303983688, 0.9760000463575125, 0.0, 0.0, 0.0, 0.0, 0.0, 1.756410036011412E9, 0.0, 2025-08-28 16:40:36.011
55.0, 5239.788702869322, -101.5308039970696, -12221.142227954697, -13028.250037392136, 0.0, 0.06400000303983688, 0.9760000463575125, 0.0, 0.0, 0.0, 0.0, 0.0, 1.756410036011412E9, 0.0, 2025-08-28 16:40:36.011
56.0, 5269.517167617101, -53.07666017115116, -12326.235286659561, -13057.63630129397, 0.0, 0.06400000303983688, 0.9760000463575125, 0.0, 0.0, 0.0, 0.0, 0.0, 1.7564100360270677E9, 0.0, 2025-08-28 16:40:36.027
56.0, 5126.819414857775, 88.38879555277526, -12555.244320546277, -13294.704819585197, 0.0, 0.06400000303983688, 0.9760000463575125, 0.0, 0.0, 0.0, 0.0, 0.0, 1.7564100360270677E9, 0.0, 2025-08-28 16:40:36.027
57.0, 5347.277167495806, -52.175344281829894, -12677.696124895476, -13483.517408748157, 0.0, 0.06400000303983688, 0.9760000463575125, 0.0, 0.0, 0.0, 0.0, 0.0, 1.7564100360278027E9, 0.0, 2025-08-28 16:40:36.027
57.0, 5174.074920747895, -89.8585762353614, -12719.382919751573, -13493.54595047934, 0.0, 0.06400000303983688, 0.9760000463575125, 0.0, 0.0, 0.0, 0.0, 0.0, 1.7564100360278027E9, 0.0, 2025-08-28 16:40:36.027
58.0, 5050.746109859087, 74.6633627153933, -12790.811269005295, -13506.272830028553, 0.0, 0.06400000303983688, 0.9760000463575125, 0.0, 0.0, 0.0, 0.0, 0.0, 1.7564100360414126E9, 0.0, 2025-08-28 16:40:36.041
58.0, 5001.394390043803, 6.627102721482515, -12676.25252351258, -13448.964473057538, 0.0, 0.06400000303983688, 0.9760000463575125, 0.0, 0.0, 0.0, 0.0, 0.0, 1.7564100360414126E9, 0.0, 2025-08-28 16:40:36.041
59.0, 5169.299068504479, -108.38978051580489, -12468.867591169663, -13239.137386043556, 0.0, 0.06400000303983688, 0.9760000463575125, 0.0, 0.0, 0.0, 0.0, 0.0, 1.7564100360570445E9, 0.0, 2025-08-28 16:40:36.057
59.0, 5406.408725695219, 5.8940823301672935, -12350.200565575622, -13067.113207781687, 0.0, 0.06400000303983688, 0.9760000463575125, 0.0, 0.0, 0.0, 0.0, 0.0, 1.7564100360570445E9, 0.0, 2025-08-28 16:40:36.057
60.0, 5587.2740274523385, 62.25437466241419, -12267.756341002416, -13034.323634920176, 0.0, 0.06400000303983688, 0.9760000463575125, 0.0, 0.0, 0.0, 0.0, 0.0, 1.7564100360577717E9, 0.0, 2025-08-28 16:40:36.057
60.0, 5730.491626305506, -90.16150813177228, -12190.06739922287, -12974.537594228517, 0.0, 0.06400000303983688, 0.9760000463575125, 0.0, 0.0, 0.0, 0.0, 0.0, 1.7564100360577717E9, 0.0, 2025-08-28 16:40:36.057
61.0, 5762.295735528693, -46.54679484851658, -12293.058634152636, -13010.947390247136, 0.0, 0.06400000303983688, 0.9760000463575125, 0.0, 0.0, 0.0, 0.0, 0.0, 1.7564100360714087E9, 0.0, 2025-08-28 16:40:36.071
61.0, 5623.450079723727, 91.75844541285187, -12524.666898508556, -12773.05422401568, 0.0, 0.06400000303983688, 0.9760000463575125, 0.0, 0.0, 0.0, 0.0, 0.0, 1.7564100360714087E9, 0.0, 2025-08-28 16:40:36.071
62.0, 5838.95994472038, -53.61520576477051, -12663.260111066513, -12962.54373507062, 0.0, 0.06400000303983688, 0.9760000463575125, 0.0, 0.0, 0.0, 0.0, 0.0, 1.7564100360870197E9, 0.0, 2025-08-28 16:40:36.087
62.0, 5677.706678330898, -89.95955353416502, -12706.484004804399, -12958.003496524412, 0.0, 0.06400000303983688, 0.9760000463575125, 0.0, 0.0, 0.0, 0.0, 0.0, 1.7564100360870197E9, 0.0, 2025-08-28 16:40:36.087
63.0, 5554.920152935665, 69.48734117671847, -12813.112292441074, -13010.418194403406, 0.0, 0.06400000303983688, 0.9760000463575125, 0.0, 0.0, 0.0, 0.0, 0.0, 1.7564100360877745E9, 0.0, 2025-08-28 16:40:36.087
63.0, 5483.035535887349, -1.1182300867512822, -12727.937940900214, -12991.04738258291, 0.0, 0.06400000303983688, 0.9760000463575125, 0.0, 0.0, 0.0, 0.0, 0.0, 1.7564100360877745E9, 0.0, 2025-08-28 16:40:36.087
64.0, 5668.027817245573, -108.06066931970417, -12938.94122645026, -13229.221041311044, 0.0, 0.06400000303983688, 0.9760000463575125, 0.0, 0.0, 0.0, 0.0, 0.0, 1.75641003611779E9, 0.0, 2025-08-28 16:40:36.117
64.0, 5899.142414807342, 14.982039222493768, -12781.16606701957, -13011.154954694677, 0.0, 0.06400000303983688, 0.9760000463575125, 0.0, 0.0, 0.0, 0.0, 0.0, 1.75641003611779E9, 0.0, 2025-08-28 16:40:36.117
65.0, 6098.131271749735, 71.073058757931, -12742.418833528645, -12992.786436062306, 0.0, 0.06400000303983688, 0.9760000463575125, 0.0, 0.0, 0.0, 0.0, 0.0, 1.7564100361185243E9, 0.0, 2025-08-28 16:40:36.118
65.0, 6228.360198056791, -85.449234187603, -12640.386882937513, -12957.541618879884, 0.0, 0.06400000303983688, 0.9760000463575125, 0.0, 0.0, 0.0, 0.0, 0.0, 1.7564100361185243E9, 0.0, 2025-08-28 16:40:36.118
66.0, 6277.046215679962, -34.14902649540454, -12750.91027637804, -12972.398371453863, 0.0, 0.06400000303983688, 0.9760000463575125, 0.0, 0.0, 0.0, 0.0, 0.0, 1.7564100361192715E9, 0.0, 2025-08-28 16:40:36.119
66.0, 6133.420967731625, 99.68703331891447, -12519.341280971654, -12733.372015535831, 0.0, 0.06400000303983688, 0.9760000463575125, 0.0, 0.0, 0.0, 0.0, 0.0, 1.7564100361192715E9, 0.0, 2025-08-28 16:40:36.119
67.0, 6349.095388326328, -54.78953435085714, -12637.514639771543, -12939.500341493636, 0.0, 0.06400000303983688, 0.9760000463575125, 0.0, 0.0, 0.0, 0.0, 0.0, 1.7564100361313584E9, 0.0, 2025-08-28 16:40:36.131
67.0, 6191.559582492802, -82.59943042136729, -12677.350184149574, -12920.647505817004, 0.0, 0.06400000303983688, 0.9760000463575125, 0.0, 0.0, 0.0, 0.0, 0.0, 1.7564100361313584E9, 0.0, 2025-08-28 16:40:36.131
68.0, 6085.064061304554, 80.75565974321216, -12775.515078186523, -12967.022265267558, 0.0, 0.06400000303983688, 0.9760000463575125, 0.0, 0.0, 0.0, 0.0, 0.0, 1.7564100361471162E9, 0.0, 2025-08-28 16:40:36.147
68.0, 5989.513357336633, 16.758491701446474, -12656.775124543346, -12934.831076398958, 0.0, 0.06400000303983688, 0.9760000463575125, 0.0, 0.0, 0.0, 0.0, 0.0, 1.7564100361471162E9, 0.0, 2025-08-28 16:40:36.147
69.0, 6174.030671400484, -95.07199677359313, -12895.016101470683, -13170.809413853101, 0.0, 0.06400000303983688, 0.9760000463575125, 0.0, 0.0, 0.0, 0.0, 0.0, 1.7564100361478028E9, 0.0, 2025-08-28 16:40:36.147
69.0, 6417.808570212219, 20.752704854123294, -12786.966651850846, -12990.972584583797, 0.0, 0.06400000303983688, 0.9760000463575125, 0.0, 0.0, 0.0, 0.0, 0.0, 1.7564100361478028E9, 0.0, 2025-08-28 16:40:36.147
70.0, 6597.215310986619, 68.68326268624514, -12751.357194422744, -13012.48074922897, 0.0, 0.06400000303983688, 0.9760000463575125, 0.0, 0.0, 0.0, 0.0, 0.0, 1.756410036161316E9, 0.0, 2025-08-28 16:40:36.161
70.0, 6739.4567959513515, -83.17537501454353, -12638.846044155769, -12942.847551953979, 0.0, 0.06400000303983688, 0.9760000463575125, 0.0, 0.0, 0.0, 0.0, 0.0, 1.756410036161316E9, 0.0, 2025-08-28 16:40:36.161
71.0, 6762.876049473882, -36.16109267156571, -12741.257594592404, -12989.59069155017, 0.0, 0.06400000303983688, 0.9760000463575125, 0.0, 0.0, 0.0, 0.0, 0.0, 1.756410036177117E9, 0.0, 2025-08-28 16:40:36.177
71.0, 6617.242475249339, 100.96233920380473, -12514.617787327617, -12779.548560288735, 0.0, 0.06400000303983688, 0.9760000463575125, 0.0, 0.0, 0.0, 0.0, 0.0, 1.756410036177117E9, 0.0, 2025-08-28 16:40:36.177
72.0, 6844.121636111289, -42.54884179588407, -12611.241842582822, -12897.254431594163, 0.0, 0.06400000303983688, 0.9760000463575125, 0.0, 0.0, 0.0, 0.0, 0.0, 1.756410036177858E9, 0.0, 2025-08-28 16:40:36.177
72.0, 6686.911201573908, -78.79595216643065, -12651.197063759435, -12899.429183418397, 0.0, 0.06400000303983688, 0.9760000463575125, 0.0, 0.0, 0.0, 0.0, 0.0, 1.756410036177858E9, 0.0, 2025-08-28 16:40:36.177
73.0, 6553.439782005269, 73.8144054254517, -12766.644035491627, -12986.464135187212, 0.0, 0.06400000303983688, 0.9760000463575125, 0.0, 0.0, 0.0, 0.0, 0.0, 1.7564100361913435E9, 0.0, 2025-08-28 16:40:36.191
73.0, 6483.750486230943, 13.048510945402086, -12638.509453159757, -12923.549668182619, 0.0, 0.06400000303983688, 0.9760000463575125, 0.0, 0.0, 0.0, 0.0, 0.0, 1.7564100361913435E9, 0.0, 2025-08-28 16:40:36.191
74.0, 6659.602452097461, -95.10565587319434, -12880.168698646594, -13162.718140298966, 0.0, 0.06400000303983688, 0.9760000463575125, 0.0, 0.0, 0.0, 0.0, 0.0, 1.7564100362071164E9, 0.0, 2025-08-28 16:40:36.207
74.0, 6898.028554072604, 16.93052709940821, -12786.345828458201, -13016.091622636188, 0.0, 0.06400000303983688, 0.9760000463575125, 0.0, 0.0, 0.0, 0.0, 0.0, 1.7564100362071164E9, 0.0, 2025-08-28 16:40:36.207
75.0, 7078.920035129413, 67.25836080312729, -12748.933739251457, -13016.416993932333, 0.0, 0.06400000303983688, 0.9760000463575125, 0.0, 0.0, 0.0, 0.0, 0.0, 1.7564100362078474E9, 0.0, 2025-08-28 16:40:36.207
75.0, 7201.75517922407, -81.93372822925448, -12601.0393955037, -12922.762419241946, 0.0, 0.06400000303983688, 0.9760000463575125, 0.0, 0.0, 0.0, 0.0, 0.0, 1.7564100362078474E9, 0.0, 2025-08-28 16:40:36.207
76.0, 7258.841012147721, -38.69300494156778, -12735.842219456565, -12984.240764663555, 0.0, 0.06400000303983688, 0.9760000463575125, 0.0, 0.0, 0.0, 0.0, 0.0, 1.7564100362213645E9, 0.0, 2025-08-28 16:40:36.221
76.0, 7115.840327491984, 93.85652928799391, -12538.474609144963, -12770.18198084971, 0.0, 0.06400000303983688, 0.9760000463575125, 0.0, 0.0, 0.0, 0.0, 0.0, 1.7564100362213645E9, 0.0, 2025-08-28 16:40:36.221
77.0, 7320.766275614034, -47.44811073783785, -12620.801026869565, -12924.157401925419, 0.0, 0.06400000303983688, 0.9760000463575125, 0.0, 0.0, 0.0, 0.0, 0.0, 1.756410036237133E9, 0.0, 2025-08-28 16:40:36.237
77.0, 7160.051554818172, -73.34317803103477, -12643.066521255765, -12916.075478121173, 0.0, 0.06400000303983688, 0.9760000463575125, 0.0, 0.0, 0.0, 0.0, 0.0, 1.756410036237133E9, 0.0, 2025-08-28 16:40:36.237
78.0, 7045.930377620272, 83.02951891627163, -12792.666259383317, -13028.395893490408, 0.0, 0.06400000303983688, 0.9760000463575125, 0.0, 0.0, 0.0, 0.0, 0.0, 1.7564100362378366E9, 0.0, 2025-08-28 16:40:36.237
78.0, 6967.811347345822, -5.123662939295173, -12686.122119495645, -13001.253569561988, 0.0, 0.06400000303983688, 0.9760000463575125, 0.0, 0.0, 0.0, 0.0, 0.0, 1.7564100362378366E9, 0.0, 2025-08-28 16:40:36.237
79.0, 7140.267484052572, -105.33428225200623, -12905.285866749007, -13210.936670427676, 0.0, 0.06400000303983688, 0.9760000463575125, 0.0, 0.0, 0.0, 0.0, 0.0, 1.7564100362513645E9, 0.0, 2025-08-28 16:40:36.251
79.0, 6907.74107425753, 21.74751824233681, -12824.578825705219, -13053.961849587504, 0.0, 0.06400000303983688, 0.9760000463575125, 0.0, 0.0, 0.0, 0.0, 0.0, 1.7564100362513645E9, 0.0, 2025-08-28 16:40:36.251
80.0, 7075.662582268007, 62.437629760243, -12791.000133953057, -13053.492492143065, 0.0, 0.06400000303983688, 0.9760000463575125, 0.0, 0.0, 0.0, 0.0, 0.0, 1.7564100362670953E9, 0.0, 2025-08-28 16:40:36.267
