Sample Index, EXG Channel 0, EXG Channel 1, EXG Channel 2, EXG Channel 3, Accel Channel 0, Accel Channel 1, Accel Channel 2, Other, Other, Other, Other, Other, Timestamp, Marker Channel, Timestamp (Formatted)
0,146.748064411338,496.570826466661,171.999868912157,-145.057629631367,0,0,0,0,0,0,0,0,1756478285.55991,0, 2025-08-29 11:38:05.559
1,191.335151683074,496.697983065154,147.24173120549,-121.204547713976,0,0.0640000030398369,0,0,0,0,0,0,1756478285.57335,0, 2025-08-29 11:38:05.573
1,44.9629472172819,555.526609368157,199.14780269051,-95.3880183198489,0,0.0640000030398369,0,0,0,0,0,0,1756478285.57335,0, 2025-08-29 11:38:05.573
2,93.2674950449728,536.183846797329,207.641115489881,-96.9026778019033,-0.0160000007599592,0.0640000030398369,0,0,0,0,0,0,1756478285.59009,0, 2025-08-29 11:38:05.590
2,238.678545222152,512.241007281002,172.99468230037,-133.542477667797,-0.0160000007599592,0.0640000030398369,0,0,0,0,0,0,1756478285.59009,0, 2025-08-29 11:38:05.590
3,82.747156469617,544.520083798561,189.835451800842,-117.34871085966,-0.0160000007599592,0.0640000030398369,0,0,0,0,0,0,1756478285.59075,0, 2025-08-29 11:38:05.590
3,65.1247478784062,542.885747517925,222.952265908476,-85.2865485395305,-0.0160000007599592,0.0640000030398369,0,0,0,0,0,0,1756478285.59075,0, 2025-08-29 11:38:05.590
4,223.741384799127,487.389372075442,181.63759109797,-116.712927867193,-0.0160000007599592,0.0640000030398369,0,0,0,0,0,0,1756478285.60313,0, 2025-08-29 11:38:05.603
4,152.82914173929,525.876682519447,170.141138634179,-107.194882479962,-0.0160000007599592,0.0640000030398369,0,0,0,0,0,0,1756478285.60313,0, 2025-08-29 11:38:05.603
5,45.9241015058942,560.50441620918,210.543277855497,-78.1096805245616,-0.0160000007599592,0.0640000030398369,0,0,0,0,0,0,1756478285.61887,0, 2025-08-29 11:38:05.618
5,149.60160807753,510.625370500144,190.000007398892,-97.4225238957442,-0.0160000007599592,0.0640000030398369,0,0,0,0,0,0,1756478285.61887,0, 2025-08-29 11:38:05.618
6,213.942846915219,523.404608648736,151.314482257236,-128.093443432357,-0.0160000007599592,0.0640000030398369,0,0,0,0,0,0,1756478285.61961,0, 2025-08-29 11:38:05.619
6,38.0329125993885,565.508402349893,173.593066293281,-119.282239136752,-0.0160000007599592,0.0640000030398369,0,0,0,0,0,0,1756478285.61961,0, 2025-08-29 11:38:05.619
7,88.6262791999616,545.997344281059,187.714928525966,-138.995251803193,-0.0160000007599592,0.0640000030398369,0,0,0,0,0,0,1756478285.63313,0, 2025-08-29 11:38:05.633
7,244.692304350901,510.322438603733,162.365886626299,-115.901369576808,-0.0160000007599592,0.0640000030398369,0,0,0,0,0,0,1756478285.63313,0, 2025-08-29 11:38:05.633
8,75.0953211602755,549.658706337679,166.289041679818,-104.434836312663,-0.0160000007599592,0.0640000030398369,0,0,0,0,0,0,1756478285.64885,0, 2025-08-29 11:38:05.648
8,54.1892804079689,557.557375044096,209.615782666486,-80.5368755958043,-0.0160000007599592,0.0640000030398369,0,0,0,0,0,0,1756478285.64885,0, 2025-08-29 11:38:05.648
9,224.388387491461,509.282746416051,168.252489156555,-112.887010212522,-0.0160000007599592,0.0640000030398369,0,0,0,0,0,0,1756478285.64954,0, 2025-08-29 11:38:05.649
9,140.610888584051,546.958498569671,162.758576121647,-123.153035590891,-0.0160000007599592,0.0640000030398369,0,0,0,0,0,0,1756478285.64954,0, 2025-08-29 11:38:05.649
10,38.3358444957994,576.290533922147,213.54267761996,-87.4407309140079,-0.0160000007599592,0.0640000030398369,0.976000046357513,0,0,0,0,0,1756478285.66307,0, 2025-08-29 11:38:05.663
10,155.331134809647,516.971980724949,186.073112445418,-118.395882847253,-0.0160000007599592,0.0640000030398369,0.976000046357513,0,0,0,0,0,1756478285.66307,0, 2025-08-29 11:38:05.663
11,218.44568646187,534.040884122718,161.213997439947,-124.660215273034,-0.0160000007599592,0.0160000007599592,0.976000046357513,0,0,0,0,0,1756478285.67881,0, 2025-08-29 11:38:05.678
11,47.0647709923796,587.977721283678,197.423708810937,-88.9217312964611,-0.0160000007599592,0.0160000007599592,0.976000046357513,0,0,0,0,0,1756478285.67881,0, 2025-08-29 11:38:05.678
12,124.428341475781,556.472804056946,221.003778031561,-80.6715119942091,0,0.0160000007599592,0.976000046357513,0,0,0,0,0,1756478285.67955,0, 2025-08-29 11:38:05.679
12,255.859645618591,520.652042281348,174.367225584108,-108.395390365738,0,0.0160000007599592,0.976000046357513,0,0,0,0,0,1756478285.67955,0, 2025-08-29 11:38:05.679
13,92.4746362543665,573.941876749974,190.93872228777,-112.14277012134,0,0.0160000007599592,0.976000046357513,0,0,0,0,0,1756478285.69307,0, 2025-08-29 11:38:05.693
13,77.4851172319613,575.538814031053,215.390188198071,-88.7609155983664,0,0.0160000007599592,0.976000046357513,0,0,0,0,0,1756478285.69307,0, 2025-08-29 11:38:05.693
14,236.614120446611,540.12196145067,186.417183241341,-90.1783376815729,0,0.0160000007599592,0.976000046357513,0,0,0,0,0,1756478285.70906,0, 2025-08-29 11:38:05.709
14,163.749649609905,561.701184195001,181.409457200672,-94.4717428307049,0,0.0160000007599592,0.976000046357513,0,0,0,0,0,1756478285.70906,0, 2025-08-29 11:38:05.709
15,64.8405154817738,584.391157226171,210.09822976077,-74.1865254710428,0,0.0160000007599592,0.976000046357513,0,0,0,0,0,1756478285.70958,0, 2025-08-29 11:38:05.709
15,158.902739267331,518.505339706782,176.080099763814,-102.407810536679,0,0.0160000007599592,0.976000046357513,0,0,0,0,0,1756478285.70958,0, 2025-08-29 11:38:05.709
16,218.441946561914,524.350803337526,155.817321803886,-113.522793204989,0,0.0160000007599592,0.976000046357513,0,0,0,0,0,1756478285.72309,0, 2025-08-29 11:38:05.723
16,74.4931972674094,577.760314604733,204.589357126039,-89.4041783907451,0,0.0160000007599592,0.976000046357513,0,0,0,0,0,1756478285.72309,0, 2025-08-29 11:38:05.723
17,111.768780125771,538.442746370565,208.426494480576,-87.294874815736,0,0.0160000007599592,0.976000046357513,0,0,0,0,0,1756478285.73884,0, 2025-08-29 11:38:05.738
17,249.385878795292,510.251380504575,170.133658834267,-108.264493867289,0,0.0160000007599592,0.976000046357513,0,0,0,0,0,1756478285.73884,0, 2025-08-29 11:38:05.738
18,101.753328044433,554.973104174715,184.558452963363,-94.9354904252104,0,0.0160000007599592,0.976000046357513,0,0,0,0,0,1756478285.73956,0, 2025-08-29 11:38:05.739
18,67.8249556464143,555.833281164523,207.872989287134,-83.001469666604,0,0.0160000007599592,0.976000046357513,0,0,0,0,0,1756478285.73956,0, 2025-08-29 11:38:05.739
19,224.68383958796,501.148464012425,161.311234838795,-109.364024454262,0,0.0160000007599592,0.976000046357513,0,0,0,0,0,1756478285.75314,0, 2025-08-29 11:38:05.753
19,161.210257539991,531.127502057236,152.836621539202,-113.118884009775,0,0.0160000007599592,0.976000046357513,0,0,0,0,0,1756478285.75314,0, 2025-08-29 11:38:05.753
20,48.2091803788208,565.145632054191,188.724701514002,-105.141677404288,0,0.0160000007599592,0.496000023558736,0,0,0,0,0,1756478285.76884,0, 2025-08-29 11:38:05.768
20,146.987418008503,504.585432071704,160.671711946372,-114.038899398874,0,0.0160000007599592,0.496000023558736,0,0,0,0,0,1756478285.76884,0, 2025-08-29 11:38:05.768
21,218.542923860718,507.158483241219,128.411334928591,-125.64380896138,0,0.0160000007599592,0.496000023558736,0,0,0,0,0,1756478285.76963,0, 2025-08-29 11:38:05.769
21,46.1297960034572,564.259275764693,161.741323333699,-117.487087158021,0,0.0160000007599592,0.496000023558736,0,0,0,0,0,1756478285.76963,0, 2025-08-29 11:38:05.769
22,88.6150595000945,527.41004150128,166.27034218004,-120.441608123016,0,0.0160000007599592,0.496000023558736,0,0,0,0,0,1756478285.78317,0, 2025-08-29 11:38:05.783
22,247.47852981789,499.95543592656,125.123962867539,-131.489272592124,0,0.0160000007599592,0.496000023558736,0,0,0,0,0,1756478285.78317,0, 2025-08-29 11:38:05.783
23,85.9372911318205,550.25709033059,153.790296027903,-111.402269930113,0,0.0160000007599592,0.496000023558736,0,0,0,0,0,1756478285.79881,0, 2025-08-29 11:38:05.798
23,51.7994843362831,541.999391228426,172.908664601389,-110.27656004345,0,0.0160000007599592,0.496000023558736,0,0,0,0,0,1756478285.79881,0, 2025-08-29 11:38:05.798
24,221.153374029789,494.663477489259,135.883655040059,-130.314944006037,0,0.0160000007599592,0.496000023558736,0,0,0,0,0,1756478285.79955,0, 2025-08-29 11:38:05.799
24,153.102154436056,546.816382371355,134.653227954637,-131.623908990528,0,0.0160000007599592,0.496000023558736,0,0,0,0,0,1756478285.79955,0, 2025-08-29 11:38:05.799
25,40.5760445692576,584.376197626349,167.310034367722,-101.708449244965,0,0.0160000007599592,0.496000023558736,0,0,0,0,0,1756478285.81314,0, 2025-08-29 11:38:05.813
25,150.71235836437,471.801469060127,131.11902249651,-143.550449949224,0,0.0160000007599592,0.496000023558736,0,0,0,0,0,1756478285.81314,0, 2025-08-29 11:38:05.813
26,209.185694171581,476.165932308417,111.435929029714,-141.456105974037,0,0.0160000007599592,0.496000023558736,0,0,0,0,0,1756478285.82882,0, 2025-08-29 11:38:05.828
26,39.7794458786957,554.341061082203,160.705371045973,-109.43508255342,0,0.0160000007599592,0.496000023558736,0,0,0,0,0,1756478285.82882,0, 2025-08-29 11:38:05.828
27,97.5870794937946,510.225201204885,160.510896248277,-137.46189282136,0,0.0160000007599592,0.496000023558736,0,0,0,0,0,1756478285.82955,0, 2025-08-29 11:38:05.829
27,239.15725241648,490.343893040437,123.508326086681,-166.012289083097,0,0.0160000007599592,0.496000023558736,0,0,0,0,0,1756478285.82955,0, 2025-08-29 11:38:05.829
28,85.7128971344791,547.560622462537,157.174905487802,-118.096690850798,0,0.0160000007599592,0.496000023558736,0,0,0,0,0,1756478285.84313,0, 2025-08-29 11:38:05.843
28,68.5991149372421,541.950772529002,177.067433352117,-110.332658542786,0,0.0160000007599592,0.496000023558736,0,0,0,0,0,1756478285.84313,0, 2025-08-29 11:38:05.843
29,219.145047753584,489.210703353863,136.493258732837,-125.565271062311,0,0.0160000007599592,0.496000023558736,0,0,0,0,0,1756478285.85881,0, 2025-08-29 11:38:05.858
29,150.110234471504,520.827817579266,127.237006342504,-131.665047890041,0,0.0160000007599592,0.496000023558736,0,0,0,0,0,1756478285.85881,0, 2025-08-29 11:38:05.858
30,64.1822930895723,555.511649768334,178.559653434437,-104.505894411821,0,0.0160000007599592,0.736000034958124,0,0,0,0,0,1756478285.8596,0, 2025-08-29 11:38:05.859
30,149.018183684442,498.242561746854,148.528256790247,-128.549711226951,0,0.0160000007599592,0.736000034958124,0,0,0,0,0,1756478285.8596,0, 2025-08-29 11:38:05.859
31,211.560530643444,496.002361673396,124.615336473566,-143.875821245369,0,0.0160000007599592,0.736000034958124,0,0,0,0,0,1756478285.87317,0, 2025-08-29 11:38:05.873
31,56.6650941786356,551.087348120753,164.568687700201,-117.236513860989,0,0.0160000007599592,0.736000034958124,0,0,0,0,0,1756478285.87317,0, 2025-08-29 11:38:05.873
32,98.1480644871481,522.570610958617,161.961977431085,-120.351850524079,0,0.0160000007599592,0.736000034958124,0,0,0,0,0,1756478285.88882,0, 2025-08-29 11:38:05.888
32,233.704478281084,486.188864189666,117.868556953501,-145.828049022239,0,0.0160000007599592,0.736000034958124,0,0,0,0,0,1756478285.88882,0, 2025-08-29 11:38:05.888
33,89.4303576904349,533.704293126706,145.285763528664,-125.247379566077,0,0.0160000007599592,0.736000034958124,0,0,0,0,0,1756478285.88955,0, 2025-08-29 11:38:05.889
33,54.357575905975,535.536844104994,158.850380667951,-119.192481537815,0,0.0160000007599592,0.736000034958124,0,0,0,0,0,1756478285.88955,0, 2025-08-29 11:38:05.889
34,209.641961966176,482.482623333577,123.613043285441,-134.372735457961,0,0.0160000007599592,0.736000034958124,0,0,0,0,0,1756478285.90315,0, 2025-08-29 11:38:05.903
34,152.948818537872,509.843731409404,136.59423603164,-125.067864368204,0,0.0160000007599592,0.736000034958124,0,0,0,0,0,1756478285.90315,0, 2025-08-29 11:38:05.903
35,45.4528741114773,540.593188845087,172.680530704092,-96.4164908076637,0,0.0160000007599592,0.736000034958124,0,0,0,0,0,1756478285.91882,0, 2025-08-29 11:38:05.918
35,140.22193898866,488.238329365384,145.424139827024,-127.121069443878,0,0.0160000007599592,0.736000034958124,0,0,0,0,0,1756478285.91882,0, 2025-08-29 11:38:05.918
36,218.127794965636,489.192003854085,118.347264147829,-149.059322583955,0,0.0160000007599592,0.736000034958124,0,0,0,0,0,1756478285.91955,0, 2025-08-29 11:38:05.919
36,55.1392149967141,539.837729054038,151.262123657856,-121.223247213755,0,0.0160000007599592,0.736000034958124,0,0,0,0,0,1756478285.91955,0, 2025-08-29 11:38:05.919
37,78.2405770230107,510.722607898992,156.688718493562,-123.968333781231,0,0.0160000007599592,0.736000034958124,0,0,0,0,0,1756478285.93314,0, 2025-08-29 11:38:05.933
37,241.382492890116,479.142892673146,122.528472298291,-141.179353377316,0,0.0160000007599592,0.736000034958124,0,0,0,0,0,1756478285.93314,0, 2025-08-29 11:38:05.933
38,83.6484723589383,531.538891052362,140.109741989989,-116.552112169098,0,0.0160000007599592,0.736000034958124,0,0,0,0,0,1756478285.94894,0, 2025-08-29 11:38:05.948
38,47.6855943850242,550.485224227887,154.852427615318,-118.287425748538,0,0.0160000007599592,0.736000034958124,0,0,0,0,0,1756478285.94894,0, 2025-08-29 11:38:05.948
39,200.509126274381,499.895597527269,88.5140822012909,-164.314374503214,0,0.0160000007599592,0.736000034958124,0,0,0,0,0,1756478285.94957,0, 2025-08-29 11:38:05.949
39,146.647087112535,506.51522044884,124.735013272148,-142.753851258662,0,0.0160000007599592,0.736000034958124,0,0,0,0,0,1756478285.94957,0, 2025-08-29 11:38:05.949
40,41.8700499539264,546.098321579862,153.23679083446,-131.807164088357,0,0.0160000007599592,0.848000040277839,0,0,0,0,0,1756478285.96316,0, 2025-08-29 11:38:05.963
40,133.80053076474,493.141338207293,108.963855159003,-166.262862380128,0,0.0160000007599592,0.848000040277839,0,0,0,0,0,1756478285.96316,0, 2025-08-29 11:38:05.963
41,194.469187845942,491.166671030689,70.9814312090166,-195.119930438232,0,0.0320000015199184,0.848000040277839,0,0,0,0,0,1756478285.97884,0, 2025-08-29 11:38:05.978
41,33.4328356538899,547.953311957885,99.6477643693797,-170.941477224696,0,0.0320000015199184,0.848000040277839,0,0,0,0,0,1756478285.97884,0, 2025-08-29 11:38:05.978
42,83.9439244554378,515.165609046351,101.506494647358,-174.370965484064,0,0.0320000015199184,0.848000040277839,0,0,0,0,0,1756478285.97956,0, 2025-08-29 11:38:05.979
42,228.184385946486,477.228063895833,56.5416774800979,-214.507571808528,0,0.0320000015199184,0.848000040277839,0,0,0,0,0,1756478285.97956,0, 2025-08-29 11:38:05.979
43,64.7395381829701,537.040283887181,74.8671872629784,-208.938860774506,0,0.0320000015199184,0.848000040277839,0,0,0,0,0,1756478285.99316,0, 2025-08-29 11:38:05.993
43,46.1484955032356,543.469171911012,98.8885646783747,-202.689487948548,0,0.0320000015199184,0.848000040277839,0,0,0,0,0,1756478285.99316,0, 2025-08-29 11:38:05.993
44,181.185063203331,491.039514432196,37.36347050732,-252.590973057318,0,0.0320000015199184,0.848000040277839,0,0,0,0,0,1756478286.00886,0, 2025-08-29 11:38:06.008
44,122.236760101747,520.334150785115,31.1178375813179,-256.050380516332,0,0.0320000015199184,0.848000040277839,0,0,0,0,0,1756478286.00886,0, 2025-08-29 11:38:06.008
45,25.6725432458334,565.097013354767,60.5396305327304,-245.52630204102,0,0.0320000015199184,0.848000040277839,0,0,0,0,0,1756478286.00956,0, 2025-08-29 11:38:06.009
45,116.267879772466,533.435020329896,19.935536713805,-282.641069201287,0,0.0320000015199184,0.848000040277839,0,0,0,0,0,1756478286.00956,0, 2025-08-29 11:38:06.009
46,173.484609194566,498.526794143487,-26.0540130413137,-315.772842908744,0,0.0320000015199184,0.848000040277839,0,0,0,0,0,1756478286.02314,0, 2025-08-29 11:38:06.023
46,10.1295190299861,537.743385078851,12.5080954018049,-294.01410496654,0,0.0320000015199184,0.848000040277839,0,0,0,0,0,1756478286.02314,0, 2025-08-29 11:38:06.023
47,37.7075413032435,516.310018432792,12.3323201038875,-306.194959122222,0,0.0320000015199184,0.848000040277839,0,0,0,0,0,1756478286.03882,0, 2025-08-29 11:38:06.038
47,179.603085522074,490.429910739418,-37.3073720079847,-334.330226488877,0,0.0320000015199184,0.848000040277839,0,0,0,0,0,1756478286.03882,0, 2025-08-29 11:38:06.038
48,39.3830164833926,551.061168821063,-24.3149595619179,-324.456890605856,0,0.0320000015199184,0.848000040277839,0,0,0,0,0,1756478286.03955,0, 2025-08-29 11:38:06.039
48,4.59072719560936,570.385231892113,-6.42327817389742,-320.245763255749,0,0.0320000015199184,0.848000040277839,0,0,0,0,0,1756478286.03955,0, 2025-08-29 11:38:06.039
49,150.985371061135,486.746109283064,-36.0208464232273,-343.80339307664,0,0.0320000015199184,0.848000040277839,0,0,0,0,0,1756478286.05316,0, 2025-08-29 11:38:06.053
49,119.35329723591,538.902754065115,-23.952189266216,-325.545201492961,0,0.0320000015199184,0.848000040277839,0,0,0,0,0,1756478286.05316,0, 2025-08-29 11:38:06.053
50,-0.117806848604232,586.706155298743,14.8866717736237,-299.616475100163,0,0.0320000015199184,0.912000043317676,0,0,0,0,0,1756478286.06857,0, 2025-08-29 11:38:06.068
50,98.5856327819638,528.11314269295,4.14193920092657,-298.617921811994,0,0.0320000015199184,0.912000043317676,0,0,0,0,0,1756478286.06857,0, 2025-08-29 11:38:06.068
51,192.270126671996,539.942446252797,-18.0506271361373,-315.604547410738,0,0.0160000007599592,0.912000043317676,0,0,0,0,0,1756478286.08453,0, 2025-08-29 11:38:06.084
51,15.0661869714968,593.823184914421,13.2859945925884,-287.884408939164,0,0.0160000007599592,0.912000043317676,0,0,0,0,0,1756478286.08453,0, 2025-08-29 11:38:06.084
52,40.3292111721821,554.008209986147,13.435590590816,-288.307017634157,0,0.0160000007599592,0.912000043317676,0,0,0,0,0,1756478286.08525,0, 2025-08-29 11:38:06.085
52,211.108002748806,519.440314695705,-21.0836860002018,-302.69067286374,0,0.0160000007599592,0.912000043317676,0,0,0,0,0,1756478286.08525,0, 2025-08-29 11:38:06.085
53,67.5781222493388,576.746801716741,19.6999230165966,-273.347417811397,0,0.0160000007599592,0.912000043317676,0,0,0,0,0,1756478286.0988,0, 2025-08-29 11:38:06.098
53,17.8187533388846,579.379691285547,62.4656790099107,-250.64622508036,0,0.0160000007599592,0.912000043317676,0,0,0,0,0,1756478286.0988,0, 2025-08-29 11:38:06.098
54,184.70056916168,528.917221183423,20.032774112653,-278.205547853839,0,0.0160000007599592,0.912000043317676,0,0,0,0,0,1756478286.09953,0, 2025-08-29 11:38:06.099
54,142.79873005813,578.777567392681,26.0278337416239,-270.557452444453,0,0.0160000007599592,0.912000043317676,0,0,0,0,0,1756478286.09953,0, 2025-08-29 11:38:06.099
55,23.7128356690519,583.366424638312,63.3595150993206,-247.284055020194,0,0.0160000007599592,0.912000043317676,0,0,0,0,0,1756478286.11315,0, 2025-08-29 11:38:06.113
55,111.286333031487,518.834450902883,34.5922046401538,-261.282500554342,0,0.0160000007599592,0.912000043317676,0,0,0,0,0,1756478286.11315,0, 2025-08-29 11:38:06.113
56,193.848364453297,521.463600571733,14.3743054796942,-278.830111146439,0,0.0160000007599592,0.912000043317676,0,0,0,0,0,1756478286.12878,0, 2025-08-29 11:38:06.128
56,24.7525278567336,578.295120298397,57.7534050657414,-253.279114649165,0,0.0160000007599592,0.912000043317676,0,0,0,0,0,1756478286.12878,0, 2025-08-29 11:38:06.128
57,62.8621084052138,551.278083018493,70.3755674161948,-243.749849562068,0,0.0160000007599592,0.912000043317676,0,0,0,0,0,1756478286.12952,0, 2025-08-29 11:38:06.129
57,215.307910399046,509.050872618798,27.763147321064,-269.682315854821,0,0.0160000007599592,0.912000043317676,0,0,0,0,0,1756478286.12952,0, 2025-08-29 11:38:06.129
58,54.4622931047343,559.296428523492,46.8964754943736,-253.567086945754,0,0.0160000007599592,0.912000043317676,0,0,0,0,0,1756478286.1759,0, 2025-08-29 11:38:06.175
58,18.6041323295794,562.359406587202,80.9071256914176,-231.090288212057,0,0.0160000007599592,0.912000043317676,0,0,0,0,0,1756478286.1759,0, 2025-08-29 11:38:06.175
59,175.706109768245,509.839991509449,42.7152673439123,-248.237729508895,0,0.0160000007599592,0.912000043317676,0,0,0,0,0,1756478286.17663,0, 2025-08-29 11:38:06.176
59,129.970873210114,541.434666335117,37.3522508074529,-249.060507499147,0,0.0160000007599592,0.912000043317676,0,0,0,0,0,1756478286.17663,0, 2025-08-29 11:38:06.176
60,10.5521277249791,575.157344235573,83.0276489662938,-219.253504852299,0,0.0160000007599592,0.944000044837594,0,0,0,0,0,1756478286.17737,0, 2025-08-29 11:38:06.177
60,104.831265707966,525.861722919624,68.4756982387044,-226.430372867268,0,0.0160000007599592,0.944000044837594,0,0,0,0,0,1756478286.17737,0, 2025-08-29 11:38:06.177
61,182.565086286981,528.771365085151,32.2809464675374,-253.286594449077,0,0.0160000007599592,0.944000044837594,0,0,0,0,0,1756478286.17812,0, 2025-08-29 11:38:06.178
61,23.0583531768061,587.745847486425,73.352527780924,-220.012704543304,0,0.0160000007599592,0.944000044837594,0,0,0,0,0,1756478286.17812,0, 2025-08-29 11:38:06.178
62,55.55060399184,557.082407749724,84.0037628547288,-198.672835396137,0,0.0160000007599592,0.944000044837594,0,0,0,0,0,1756478286.18882,0, 2025-08-29 11:38:06.188
62,210.090749960858,518.251026509795,38.750973390881,-233.659599481616,0,0.0160000007599592,0.944000044837594,0,0,0,0,0,1756478286.18882,0, 2025-08-29 11:38:06.188
63,52.3529895297252,567.569087225478,55.8610156881623,-227.563562553842,0,0.0160000007599592,0.944000044837594,0,0,0,0,0,1756478286.18955,0, 2025-08-29 11:38:06.189
63,9.29926123982295,547.889733658638,88.9553903960623,-221.119714930188,0,0.0160000007599592,0.944000044837594,0,0,0,0,0,1756478286.18955,0, 2025-08-29 11:38:06.189
64,166.281561879907,490.112019243184,50.4157213526778,-241.490949988831,0,0.0160000007599592,0.944000044837594,0,0,0,0,0,1756478286.20314,0, 2025-08-29 11:38:06.203
64,134.174520760309,527.181907603983,56.3995612817817,-223.030803807545,0,0.0160000007599592,0.944000044837594,0,0,0,0,0,1756478286.20314,0, 2025-08-29 11:38:06.203
65,-11.4384840144776,566.888425433543,97.9535896894522,-186.518160540145,0,0.0160000007599592,0.944000044837594,0,0,0,0,0,1756478286.21882,0, 2025-08-29 11:38:06.218
65,110.650550039019,518.307125009131,82.5975604713894,-209.597083166707,0,0.0160000007599592,0.944000044837594,0,0,0,0,0,1756478286.21882,0, 2025-08-29 11:38:06.218
66,211.470773044508,516.272619433235,47.8351903832518,-217.813643369358,0,0.0160000007599592,0.944000044837594,0,0,0,0,0,1756478286.21955,0, 2025-08-29 11:38:06.219
66,-7.66492495918646,576.642084517982,74.5118967671879,-200.987833468709,0,0.0160000007599592,0.944000044837594,0,0,0,0,0,1756478286.21955,0, 2025-08-29 11:38:06.219
67,52.9177144230343,544.609841397498,102.673343433533,-188.432989317458,0,0.0160000007599592,0.944000044837594,0,0,0,0,0,1756478286.23316,0, 2025-08-29 11:38:06.233
67,250.010442087892,504.611611371394,61.3324893233366,-215.341569498647,0,0.0160000007599592,0.944000044837594,0,0,0,0,0,1756478286.23316,0, 2025-08-29 11:38:06.233
68,46.2532127019949,554.023169585969,67.0059175561182,-219.601315548178,0,0.0160000007599592,0.944000044837594,0,0,0,0,0,1756478286.2488,0, 2025-08-29 11:38:06.248
68,-4.84878029255196,561.817121093627,96.6147055053152,-200.441808075178,0,0.0160000007599592,0.944000044837594,0,0,0,0,0,1756478286.2488,0, 2025-08-29 11:38:06.248
69,224.534243589733,527.585816799197,70.5476028141566,-215.81653679302,0,0.0160000007599592,0.944000044837594,0,0,0,0,0,1756478286.24958,0, 2025-08-29 11:38:06.249
69,132.237252583262,542.743631319609,52.861615923699,-222.29778341623,0,0.0160000007599592,0.944000044837594,0,0,0,0,0,1756478286.24958,0, 2025-08-29 11:38:06.249
70,-20.4628626075573,581.567532759626,106.940569282975,-195.81555182999,0,0.0160000007599592,0.960000045597553,0,0,0,0,0,1756478286.26314,0, 2025-08-29 11:38:06.263
70,128.216860130895,509.372504014987,70.1474335188977,-201.717113960069,0,0.0160000007599592,0.960000045597553,0,0,0,0,0,1756478286.26314,0, 2025-08-29 11:38:06.263
71,209.765378664713,506.447902249638,38.8856097892858,-225.858168174047,0,0.0160000007599592,0.960000045597553,0,0,0,0,0,1756478286.27882,0, 2025-08-29 11:38:06.278
71,-20.9677491015755,571.881191874389,91.7229163632728,-189.266987007577,0,0.0160000007599592,0.960000045597553,0,0,0,0,0,1756478286.27882,0, 2025-08-29 11:38:06.278
72,71.2918429053389,571.970949473325,82.9640706670471,-212.723639529664,0,0.0160000007599592,0.960000045597553,0,0,0,0,0,1756478286.27955,0, 2025-08-29 11:38:06.279
72,243.813427861314,527.327763702255,6.32230087509379,-270.478914545383,0,0.0160000007599592,0.960000045597553,0,0,0,0,0,1756478286.27955,0, 2025-08-29 11:38:06.279
73,21.5324739948846,561.222477000672,80.2115042996593,-207.839330187533,0,0.0160000007599592,0.960000045597553,0,0,0,0,0,1756478286.29315,0, 2025-08-29 11:38:06.293
73,-10.4997691255994,556.19231156027,119.289718936663,-174.797314079013,0,0.0160000007599592,0.960000045597553,0,0,0,0,0,1756478286.29315,0, 2025-08-29 11:38:06.293
74,213.344462922309,496.690503265243,130.314944006037,-185.388710753527,0,0.0160000007599592,0.960000045597553,0,0,0,0,0,1756478286.30885,0, 2025-08-29 11:38:06.308
74,141.598222172353,510.737567498814,177.258168249857,-105.983154894318,0,0.0160000007599592,0.960000045597553,0,0,0,0,0,1756478286.30885,0, 2025-08-29 11:38:06.308
75,1.17619853606448,540.974658640567,196.945001616608,-81.9655173788778,0,0.0160000007599592,0.960000045597553,0,0,0,0,0,1756478286.30958,0, 2025-08-29 11:38:06.309
75,170.455290230457,486.259922288824,250.481669482309,-7.69484415883198,0,0.0160000007599592,0.960000045597553,0,0,0,0,0,1756478286.30958,0, 2025-08-29 11:38:06.309
76,265.142077308614,484.603146608453,273.82238510577,25.4369295486249,0,0.0160000007599592,0.960000045597553,0,0,0,0,0,1756478286.33957,0, 2025-08-29 11:38:06.339
76,44.9779068171047,541.834835630376,311.961884853896,93.7798613389023,0,0.0160000007599592,0.960000045597553,0,0,0,0,0,1756478286.33957,0, 2025-08-29 11:38:06.339
77,120.980153716635,515.442361643072,330.235036037397,79.515882907901,0,0.0160000007599592,0.960000045597553,0,0,0,0,0,1756478286.34029,0, 2025-08-29 11:38:06.340
77,306.96911841305,458.588402516674,288.34815653367,-3.79412850504741,0,0.0160000007599592,0.960000045597553,0,0,0,0,0,1756478286.34029,0, 2025-08-29 11:38:06.340
78,87.7361830105074,510.251380504575,306.366994520184,5.78375528147444,0,0.0160000007599592,0.960000045597553,0,0,0,0,0,1756478286.3411,0, 2025-08-29 11:38:06.341
78,44.9479876174591,520.618383181747,354.966994444374,39.1100037866272,0,0.0160000007599592,0.960000045597553,0,0,0,0,0,1756478286.3411,0, 2025-08-29 11:38:06.341
79,269.962808351498,455.465586053673,323.690211114939,95.1972834221087,0,0.0160000007599592,0.960000045597553,0,0,0,0,0,1756478286.35312,0, 2025-08-29 11:38:06.353
79,188.515267116483,484.734043106902,321.521069140639,93.2188763455488,0,0.0160000007599592,0.960000045597553,0,0,0,0,0,1756478286.35312,0, 2025-08-29 11:38:06.353
80,34.9624547357671,531.34067635471,344.080145673361,78.2517967228778,0,0.0160000007599592,0.976000046357513,0,0,0,0,0,1756478286.36882,0, 2025-08-29 11:38:06.368
80,195.269526436459,473.708818037529,309.904939878266,31.9181761718355,0,0.0160000007599592,0.976000046357513,0,0,0,0,0,1756478286.36882,0, 2025-08-29 11:38:06.368
81,246.079807234462,441.096890423913,252.116005762946,10.8251404217444,0,0.0160000007599592,0.976000046357513,0,0,0,0,0,1756478286.36954,0, 2025-08-29 11:38:06.369
81,17.0333743481897,532.040037646424,287.738552840892,30.1342438929714,0,0.0160000007599592,0.976000046357513,0,0,0,0,0,1756478286.36954,0, 2025-08-29 11:38:06.369
82,108.380430765916,506.75831394596,295.928933743853,10.4623701260425,0,0.0160000007599592,0.976000046357513,0,0,0,0,0,1756478286.38315,0, 2025-08-29 11:38:06.383
82,303.01230425993,453.404901178088,213.75959181739,-21.6895497930236,0,0.0160000007599592,0.976000046357513,0,0,0,0,0,1756478286.38315,0, 2025-08-29 11:38:06.383
83,544.219021852128,508.026140030939,222.267864216585,-37.6963216033764,0,0.0160000007599592,0.976000046357513,0,0,0,0,0,1756478286.39888,0, 2025-08-29 11:38:06.398
83,518.836320852861,528.935920683201,270.662169643212,1.96531742671505,0,0.0160000007599592,0.976000046357513,0,0,0,0,0,1756478286.39888,0, 2025-08-29 11:38:06.398
84,741.375327816233,461.415766883176,214.806763804983,-45.5426317104138,0,0.0160000007599592,0.976000046357513,0,0,0,0,0,1756478286.39961,0, 2025-08-29 11:38:06.399
84,624.338898602873,499.117698336486,196.402716123033,-46.8104577953927,0,0.0160000007599592,0.976000046357513,0,0,0,0,0,1756478286.39961,0, 2025-08-29 11:38:06.399
85,485.730726445094,561.985416591633,250.986555976328,-19.6662639169954,0,0.0160000007599592,0.976000046357513,0,0,0,0,0,1756478286.41315,0, 2025-08-29 11:38:06.413
85,669.270056670532,498.612811842468,222.75779111078,-39.4765139822848,0,0.0160000007599592,0.976000046357513,0,0,0,0,0,1756478286.41315,0, 2025-08-29 11:38:06.413
86,707.405816518702,477.014889598358,177.662077445071,-74.2987224697135,0,0.0160000007599592,0.976000046357513,0,0,0,0,0,1756478286.42892,0, 2025-08-29 11:38:06.428
86,464.671349794604,542.15272712661,222.421200114768,-47.6481953854673,0,0.0160000007599592,0.976000046357513,0,0,0,0,0,1756478286.42892,0, 2025-08-29 11:38:06.428
87,580.731665119529,519.98260018928,232.010303601157,-41.380123059731,0,0.0160000007599592,0.976000046357513,0,0,0,0,0,1756478286.42958,0, 2025-08-29 11:38:06.429
87,746.876720651053,474.587694527116,167.093120170292,-71.5723354020156,0,0.0160000007599592,0.976000046357513,0,0,0,0,0,1756478286.42958,0, 2025-08-29 11:38:06.429
88,509.808202359825,540.869941441808,190.579691892024,-63.6213080962189,0,0.0160000007599592,0.976000046357513,0,0,0,0,0,1756478286.44312,0, 2025-08-29 11:38:06.443
88,514.292342406698,557.202084548306,226.972658360843,-45.8829626063816,0,0.0160000007599592,0.976000046357513,0,0,0,0,0,1756478286.44312,0, 2025-08-29 11:38:06.443
89,725.031965009868,485.938290892635,170.414151330944,-84.8863792442717,0,0.0160000007599592,0.976000046357513,0,0,0,0,0,1756478286.45892,0, 2025-08-29 11:38:06.458
89,600.781268781982,535.940753300209,157.231003987137,-83.2408232637681,0,0.0160000007599592,0.976000046357513,0,0,0,0,0,1756478286.45892,0, 2025-08-29 11:38:06.458
90,478.568818029948,596.822584678885,211.582970043179,-56.7997305770405,0,0.0160000007599592,0.976000046357513,0,0,0,0,0,1756478286.45962,0, 2025-08-29 11:38:06.459
90,653.10620906204,525.386755625252,175.971642665099,-90.4850094779395,0,0.0160000007599592,0.976000046357513,0,0,0,0,0,1756478286.45962,0, 2025-08-29 11:38:06.459
91,685.11601278279,488.754435559269,142.881007857155,-122.03480550414,0,0.0160000007599592,0.976000046357513,0,0,0,0,0,1756478286.47315,0, 2025-08-29 11:38:06.473
91,462.438629521057,562.292088388,188.79575961316,-101.719668944832,0,0.0160000007599592,0.976000046357513,0,0,0,0,0,1756478286.47315,0, 2025-08-29 11:38:06.473
92,569.848556248471,522.862323155161,189.992527598981,-71.8154288991354,0,0.0160000007599592,0.976000046357513,0,0,0,0,0,1756478286.48887,0, 2025-08-29 11:38:06.488
92,735.589702584781,457.156020833645,119.876883229706,-119.727287231479,0,0.0160000007599592,0.976000046357513,0,0,0,0,0,1756478286.48887,0, 2025-08-29 11:38:06.488
93,512.298975730315,546.232957978267,169.93170423666,-81.4007924855687,0,0.0160000007599592,0.976000046357513,0,0,0,0,0,1756478286.48959,0, 2025-08-29 11:38:06.489
93,512.444831828587,561.936797892209,213.35194272222,-64.1710733897053,0,0.0160000007599592,0.976000046357513,0,0,0,0,0,1756478286.48959,0, 2025-08-29 11:38:06.489
94,719.470733775757,484.509649109561,159.583401059266,-93.7761214389466,0,0.0160000007599592,0.976000046357513,0,0,0,0,0,1756478286.50316,0, 2025-08-29 11:38:06.503
94,603.608633148484,519.833004191052,146.957498808857,-112.176429220941,0,0.0160000007599592,0.976000046357513,0,0,0,0,0,1756478286.50316,0, 2025-08-29 11:38:06.503
95,469.817452133633,569.405378103722,210.45352025656,-88.5178221012466,0,0.0160000007599592,0.976000046357513,0,0,0,0,0,1756478286.51891,0, 2025-08-29 11:38:06.518
95,649.134435309097,501.638390906621,184.509834263939,-93.1178990467452,0,0.0160000007599592,0.976000046357513,0,0,0,0,0,1756478286.51891,0, 2025-08-29 11:38:06.518
96,697.323046238162,507.532473236788,142.72019215906,-117.315051760059,0,0.0160000007599592,0.976000046357513,0,0,0,0,0,1756478286.5196,0, 2025-08-29 11:38:06.519
96,459.375651457347,580.464262272697,186.147910444532,-110.100784745533,0,0.0160000007599592,0.976000046357513,0,0,0,0,0,1756478286.5196,0, 2025-08-29 11:38:06.519
97,565.648648598231,549.726024536882,161.651565734763,-120.901615817565,0,0.0160000007599592,0.976000046357513,0,0,0,0,0,1756478286.53315,0, 2025-08-29 11:38:06.533
97,744.019437084906,486.274881888647,167.182877769228,-93.1964369458146,0,0.0160000007599592,0.976000046357513,0,0,0,0,0,1756478286.53315,0, 2025-08-29 11:38:06.533
98,502.556536345743,551.625893714372,189.214628408197,-99.3410925730132,0,0.0160000007599592,0.976000046357513,0,0,0,0,0,1756478286.54888,0, 2025-08-29 11:38:06.548
98,505.95984530542,545.357821388636,223.442192802671,-57.1998998722993,0,0.0160000007599592,0.976000046357513,0,0,0,0,0,1756478286.54888,0, 2025-08-29 11:38:06.548
99,715.902869218029,460.305016596336,158.491350272205,-103.978568518069,0,0.0160000007599592,0.976000046357513,0,0,0,0,0,1756478286.54962,0, 2025-08-29 11:38:06.549
99,584.011557380669,494.109972295817,157.014089789707,-109.427602753509,0,0.0160000007599592,0.976000046357513,0,0,0,0,0,1756478286.54962,0, 2025-08-29 11:38:06.549
100,456.690403289162,570.29173439322,216.702893082518,-83.9252249556594,0,0.0160000007599592,0.976000046357513,0,0,0,0,0,1756478286.56385,0, 2025-08-29 11:38:06.563
100,655.043477239087,512.947848372627,185.762700749096,-105.425909800921,0,0.0160000007599592,0.976000046357513,0,0,0,0,0,1756478286.56385,0, 2025-08-29 11:38:06.563
0,192.591758068185,489.878275495954,143.557929749135,-118.844670841936,0,0.0160000007599592,0.976000046357513,0,0,0,0,0,1756478286.56455,0, 2025-08-29 11:38:06.564
1,-41.4025624594651,553.561291941442,199.323577988427,-100.137691263575,0,0.0160000007599592,0.976000046357513,0,0,0,0,0,1756478286.5782,0, 2025-08-29 11:38:06.578
1,101.173643551301,537.674196929671,216.762731481809,-94.5502807297744,0,0.0160000007599592,0.976000046357513,0,0,0,0,0,1756478286.5782,0, 2025-08-29 11:38:06.578
2,264.438976116944,494.713966138661,157.833127880003,-108.982554658782,0,0.0160000007599592,0.976000046357513,0,0,0,0,0,1756478286.59388,0, 2025-08-29 11:38:06.593
2,493.59573605191,557.215174198151,184.625771162566,-88.0615543066524,0,0.0160000007599592,0.976000046357513,0,0,0,0,0,1756478286.59388,0, 2025-08-29 11:38:06.593
3,518.271595959552,572.215912920423,233.783016180154,-68.842208434362,0,0.0160000007599592,0.976000046357513,0,0,0,0,0,1756478286.59457,0, 2025-08-29 11:38:06.594
3,725.304977706634,495.940653324127,184.56967266323,-110.822585436981,0,0.0160000007599592,0.976000046357513,0,0,0,0,0,1756478286.59457,0, 2025-08-29 11:38:06.594
4,587.665439637378,530.871318910271,178.630711533595,-121.716914007906,0,0.0160000007599592,0.976000046357513,0,0,0,0,0,1756478286.60817,0, 2025-08-29 11:38:06.608
4,468.003600655124,581.434766311198,227.305509456899,-90.7281029750593,0,0.0160000007599592,0.976000046357513,0,0,0,0,0,1756478286.60817,0, 2025-08-29 11:38:06.608
5,662.856128246524,521.992796415463,206.9305344983,-108.544986363966,0,0.0160000007599592,0.976000046357513,0,0,0,0,0,1756478286.62384,0, 2025-08-29 11:38:06.623
5,683.38069920335,502.403200447559,170.163578033913,-137.708726218436,0,0.0160000007599592,0.976000046357513,0,0,0,0,0,1756478286.62384,0, 2025-08-29 11:38:06.623
6,457.887171274982,562.679168033414,225.274743780959,-86.7376297223382,0,0.0160000007599592,0.976000046357513,0,0,0,0,0,1756478286.62458,0, 2025-08-29 11:38:06.624
6,597.419098721817,550.969541272149,248.121792610269,-65.8914273693226,0,0.0160000007599592,0.976000046357513,0,0,0,0,0,1756478286.62458,0, 2025-08-29 11:38:06.624
7,755.351333950646,492.488725665025,180.594159010332,-118.092950950842,0,0.0160000007599592,0.976000046357513,0,0,0,0,0,1756478286.63817,0, 2025-08-29 11:38:06.638
7,999.235819911119,552.529079553671,204.447240927722,-109.509880552534,0,0.0160000007599592,0.976000046357513,0,0,0,0,0,1756478286.63817,0, 2025-08-29 11:38:06.638
8,1014.33379603224,558.45682098344,252.59845285723,-88.0727740065195,0,0.0160000007599592,0.976000046357513,0,0,0,0,0,1756478286.65388,0, 2025-08-29 11:38:06.653
8,1225.18561563408,474.05475878343,194.222354448866,-108.070019069593,0,0.0160000007599592,0.976000046357513,0,0,0,0,0,1756478286.65388,0, 2025-08-29 11:38:06.653
9,1094.26293788524,514.883246599697,190.654489891138,-123.295151789207,0,0.0160000007599592,0.976000046357513,0,0,0,0,0,1756478286.65455,0, 2025-08-29 11:38:06.654
9,958.377412895206,574.250418496318,247.257875720505,-99.8684184667654,0,0.0160000007599592,0.976000046357513,0,0,0,0,0,1756478286.65455,0, 2025-08-29 11:38:06.654
10,1159.71492700977,503.67850633245,229.205378634389,-105.560546199325,0,0.0160000007599592,0.976000046357513,0,0,0,0,0,1756478286.6682,0, 2025-08-29 11:38:06.668
10,1197.28222206468,495.794797225855,187.449395629112,-129.593143314589,0,0.0160000007599592,0.976000046357513,0,0,0,0,0,1756478286.6682,0, 2025-08-29 11:38:06.668
11,1441.06573072635,583.293496589176,249.000669099856,-96.2145362100564,0,0.0160000007599592,0.976000046357513,0,0,0,0,0,1756478286.68382,0, 2025-08-29 11:38:06.683
11,1577.89745040517,552.873150349595,251.92153096525,-80.3760598977096,0,0.0160000007599592,0.976000046357513,0,0,0,0,0,1756478286.68382,0, 2025-08-29 11:38:06.683
12,1740.01837358437,491.811803773046,195.909049328882,-126.163655055221,0,0.0160000007599592,0.976000046357513,0,0,0,0,0,1756478286.68455,0, 2025-08-29 11:38:06.684
12,1975.58158214344,581.63298100885,227.589741853531,-115.433882082347,0,0.0160000007599592,0.976000046357513,0,0,0,0,0,1756478286.68455,0, 2025-08-29 11:38:06.684
13,1996.48014309583,587.583161838353,269.981507851277,-69.4742515268736,0,0.0160000007599592,0.976000046357513,0,0,0,0,0,1756478286.69819,0, 2025-08-29 11:38:06.698
13,2219.95038514817,496.546517116949,212.641361730639,-105.448349200655,0,0.0160000007599592,0.976000046357513,0,0,0,0,0,1756478286.69819,0, 2025-08-29 11:38:06.698
14,2068.32362124464,499.097128886729,208.332996981684,-110.590711639728,0,0.0160000007599592,0.976000046357513,0,0,0,0,0,1756478286.71382,0, 2025-08-29 11:38:06.713
14,1943.53063952317,587.897313434631,265.90875679953,-87.0106424191035,0,0.0160000007599592,0.976000046357513,0,0,0,0,0,1756478286.71382,0, 2025-08-29 11:38:06.713
15,2162.45316322939,513.002076921985,235.286455962341,-98.9745823773555,0,0.0160000007599592,0.976000046357513,0,0,0,0,0,1756478286.71456,0, 2025-08-29 11:38:06.714
15,2174.33482538862,515.002923398279,193.769826554228,-119.248580037151,0,0.0160000007599592,0.976000046357513,0,0,0,0,0,1756478286.71456,0, 2025-08-29 11:38:06.714
16,2408.8920008596,592.688125277869,247.852519813459,-90.7692418745719,0,0.0160000007599592,0.976000046357513,0,0,0,0,0,1756478286.72823,0, 2025-08-29 11:38:06.728
16,2557.40342810005,556.736467003822,263.290826830547,-63.7709040944465,0,0.0160000007599592,0.976000046357513,0,0,0,0,0,1756478286.72823,0, 2025-08-29 11:38:06.728
17,2696.2247745553,498.068656398915,200.610103573184,-126.432927852031,0,0.0160000007599592,0.976000046357513,0,0,0,0,0,1756478286.74385,0, 2025-08-29 11:38:06.743
17,2917.2846510862,582.425839799456,223.647887300234,-116.350157571491,0,0.0160000007599592,0.976000046357513,0,0,0,0,0,1756478286.74385,0, 2025-08-29 11:38:06.743
18,2955.85049942927,600.785008681938,263.8181527243,-66.9348594569601,0,0.0160000007599592,0.976000046357513,0,0,0,0,0,1756478286.74456,0, 2025-08-29 11:38:06.744
18,3167.19598582527,513.727617513388,203.355190140661,-109.468741653021,0,0.0160000007599592,0.976000046357513,0,0,0,0,0,1756478286.74456,0, 2025-08-29 11:38:06.744
19,3020.89109955868,553.572511641309,209.518545267638,-119.095244138967,0,0.0160000007599592,0.976000046357513,0,0,0,0,0,1756478286.75815,0, 2025-08-29 11:38:06.758
19,2910.31347756879,611.032334560528,259.988495169673,-80.54061549576,0,0.0160000007599592,0.976000046357513,0,0,0,0,0,1756478286.75815,0, 2025-08-29 11:38:06.758
20,3118.63338490063,534.405524368398,230.439545619767,-102.142277639825,0,0.0160000007599592,0.976000046357513,0,0,0,0,0,1756478286.77383,0, 2025-08-29 11:38:06.773
20,3143.42892160686,516.405385881662,166.494736177381,-147.997190996539,0,0.0160000007599592,0.976000046357513,0,0,0,0,0,1756478286.77383,0, 2025-08-29 11:38:06.773
21,2910.79966456303,592.351534281857,227.118514459115,-119.555251833517,0,0.0160000007599592,0.976000046357513,0,0,0,0,0,1756478286.77454,0, 2025-08-29 11:38:06.774
21,3050.33533190982,540.071472801268,233.061215488706,-95.1711041224189,0,0.0160000007599592,0.976000046357513,0,0,0,0,0,1756478286.77454,0, 2025-08-29 11:38:06.774
22,3197.87438516179,476.455774554983,163.065247918014,-130.071850508917,0,0.0160000007599592,0.976000046357513,0,0,0,0,0,1756478286.78815,0, 2025-08-29 11:38:06.788
22,2955.74204233056,555.173188822344,194.128856949974,-116.948541564401,0,0.0160000007599592,0.976000046357513,0,0,0,0,0,1756478286.78815,0, 2025-08-29 11:38:06.788
23,2967.39931049244,555.846370814368,238.641146222595,-89.6397920879535,0,0.0160000007599592,0.976000046357513,0,0,0,0,0,1756478286.8038,0, 2025-08-29 11:38:06.803
23,3172.91429285752,464.233781499788,165.462523789611,-139.099969001953,0,0.0160000007599592,0.976000046357513,0,0,0,0,0,1756478286.8038,0, 2025-08-29 11:38:06.803
24,3038.10585905472,517.149625972845,157.881746579427,-148.606794689316,0,0.0160000007599592,0.976000046357513,0,0,0,0,0,1756478286.80457,0, 2025-08-29 11:38:06.804
24,2907.25423940504,578.947732840665,214.27195811132,-115.31794518372,0,0.0160000007599592,0.976000046357513,0,0,0,0,0,1756478286.80457,0, 2025-08-29 11:38:06.804
25,3110.77959499368,494.915920736268,190.77416668972,-140.98487857962,0,0.0160000007599592,0.976000046357513,0,0,0,0,0,1756478286.81814,0, 2025-08-29 11:38:06.818
25,3129.63991047023,454.53996081464,141.183093277272,-159.216890863609,0,0.0160000007599592,0.976000046357513,0,0,0,0,0,1756478286.81814,0, 2025-08-29 11:38:06.818
26,3371.76664345153,553.022746347822,193.272419860121,-123.508326086681,0,0.0160000007599592,0.976000046357513,0,0,0,0,0,1756478286.83383,0, 2025-08-29 11:38:06.833
26,3520.90263398457,523.585993796587,194.29715244798,-126.15617525531,0,0.0160000007599592,0.976000046357513,0,0,0,0,0,1756478286.83383,0, 2025-08-29 11:38:06.833
27,3687.73583110794,460.340545645915,139.286963999737,-163.962823907379,0,0.0160000007599592,0.976000046357513,0,0,0,0,0,1756478286.83455,0, 2025-08-29 11:38:06.834
27,3907.41942445515,531.914750997908,178.765347932,-136.590496131685,0,0.0160000007599592,0.976000046357513,0,0,0,0,0,1756478286.83455,0, 2025-08-29 11:38:06.834
28,3936.12315661507,550.644169976003,223.094382106792,-84.942477743607,0,0.0160000007599592,0.976000046357513,0,0,0,0,0,1756478286.84815,0, 2025-08-29 11:38:06.848
28,4168.40460296301,469.738914234564,160.174305252265,-136.440900133457,0,0.0160000007599592,0.976000046357513,0,0,0,0,0,1756478286.84815,0, 2025-08-29 11:38:06.848
29,4006.17148278514,508.933065770194,147.952312197071,-141.08959577838,0,0.0160000007599592,0.976000046357513,0,0,0,0,0,1756478286.86383,0, 2025-08-29 11:38:06.863
29,3883.67105973652,572.500145317055,220.828002733644,-89.5799536886625,0,0.0160000007599592,0.976000046357513,0,0,0,0,0,1756478286.86383,0, 2025-08-29 11:38:06.863
30,4097.59707710194,491.007725282572,177.269387949724,-120.546325321775,0,0.0160000007599592,0.976000046357513,0,0,0,0,0,1756478286.86456,0, 2025-08-29 11:38:06.864
30,4100.44688086817,471.836998109706,120.512666222174,-160.940984743182,0,0.0160000007599592,0.976000046357513,0,0,0,0,0,1756478286.86456,0, 2025-08-29 11:38:06.864
31,4345.37105901632,558.251126485877,185.179276356008,-120.901615817565,0,0.0160000007599592,0.976000046357513,0,0,0,0,0,1756478286.87813,0, 2025-08-29 11:38:06.878
31,4510.14357126411,536.795320440084,210.023431761656,-97.9386300896294,0,0.0160000007599592,0.976000046357513,0,0,0,0,0,1756478286.87813,0, 2025-08-29 11:38:06.878
32,4659.78070839122,480.214374010451,177.905170942191,-109.872650848236,0,0.0160000007599592,0.976000046357513,0,0,0,0,0,1756478286.89382,0, 2025-08-29 11:38:06.893
32,4888.69811472902,554.634643228725,224.653920388315,-73.4198459801264,0,0.0160000007599592,0.976000046357513,0,0,0,0,0,1756478286.89382,0, 2025-08-29 11:38:06.893
33,4944.47124276822,568.988379258663,307.148633610923,-5.49204308493063,0,0.0160000007599592,0.976000046357513,0,0,0,0,0,1756478286.89455,0, 2025-08-29 11:38:06.894
33,5154.13751408411,482.903362078592,278.179368554149,-12.5267949015833,0,0.0160000007599592,0.976000046357513,0,0,0,0,0,1756478286.89455,0, 2025-08-29 11:38:06.894
34,4992.09138890402,513.443385116756,284.952327373903,4.45983069716021,0,0.0160000007599592,0.976000046357513,0,0,0,0,0,1756478286.90814,0, 2025-08-29 11:38:06.908
34,4911.32076956099,596.48786363285,414.225709242281,108.066279169638,0,0.0160000007599592,0.976000046357513,0,0,0,0,0,1756478286.90814,0, 2025-08-29 11:38:06.908
35,5131.8477103482,515.096420897171,413.021461456548,109.693135650363,0,0.0160000007599592,0.976000046357513,0,0,0,0,0,1756478286.92383,0, 2025-08-29 11:38:06.923
35,5146.84844907047,493.008571758866,397.912265635561,120.265832825098,0,0.0160000007599592,0.976000046357513,0,0,0,0,0,1756478286.92383,0, 2025-08-29 11:38:06.923
36,4922.19265873218,567.469979876652,475.159899220336,174.793574179057,0,0.0160000007599592,0.976000046357513,0,0,0,0,0,1756478286.92455,0, 2025-08-29 11:38:06.924
36,5079.06650227355,529.883985321969,468.51035709912,179.651704221498,0,0.0160000007599592,0.976000046357513,0,0,0,0,0,1756478286.92455,0, 2025-08-29 11:38:06.924
37,5226.67661362467,466.013973878697,398.682685026433,124.783631971572,0,0.0160000007599592,0.976000046357513,0,0,0,0,0,1756478286.93815,0, 2025-08-29 11:38:06.938
37,5470.46012228634,537.655497429892,433.807825410273,145.682192923967,0,0.0160000007599592,0.976000046357513,0,0,0,0,0,1756478286.93815,0, 2025-08-29 11:38:06.938
38,5506.8755281549,552.525339653716,463.091242063325,156.097814300563,0,0.0160000007599592,0.976000046357513,0,0,0,0,0,1756478286.95383,0, 2025-08-29 11:38:06.953
38,5707.37530467939,464.166463300586,369.474066372495,68.4644785388373,0,0.0160000007599592,0.976000046357513,0,0,0,0,0,1756478286.95383,0, 2025-08-29 11:38:06.953
39,5537.90547808725,507.003277393058,332.695890208241,29.0683724055998,0,0.0160000007599592,0.976000046357513,0,0,0,0,0,1756478286.95456,0, 2025-08-29 11:38:06.954
39,5427.88510119077,586.988517745398,370.132288764697,90.5972064766102,0,0.0160000007599592,0.976000046357513,0,0,0,0,0,1756478286.95456,0, 2025-08-29 11:38:06.954
40,5632.35291156825,493.958506347612,309.512250382919,41.8401307542808,0,0.0160000007599592,0.976000046357513,0,0,0,0,0,1756478286.96814,0, 2025-08-29 11:38:06.968
40,5629.73124169931,478.467840731144,230.566702218261,-20.5114813069813,0,0.0160000007599592,0.976000046357513,0,0,0,0,0,1756478286.96814,0, 2025-08-29 11:38:06.968
41,5861.39747450454,536.559706742875,260.059553268831,-18.4021777319722,0,0.0160000007599592,0.976000046357513,0,0,0,0,0,1756478286.98382,0, 2025-08-29 11:38:06.983
41,6007.9417143683,487.002292430028,236.999330142047,-37.7449403028004,0,0.0160000007599592,0.976000046357513,0,0,0,0,0,1756478286.98382,0, 2025-08-29 11:38:06.983
42,6149.79611968761,443.903685340658,170.006502235774,-100.096552364063,0,0.0160000007599592,0.976000046357513,0,0,0,0,0,1756478286.98455,0, 2025-08-29 11:38:06.984
42,6367.43772765901,521.091480526142,184.883824259508,-107.277160278987,0,0.0160000007599592,0.976000046357513,0,0,0,0,0,1756478286.98455,0, 2025-08-29 11:38:06.984
43,6407.08814698923,549.563338888809,223.898460597265,-76.0003769495525,0,0.0160000007599592,0.976000046357513,0,0,0,0,0,1756478286.99815,0, 2025-08-29 11:38:06.998
43,6617.34158259817,443.159445249476,147.077175607439,-138.206132912543,0,0.0160000007599592,0.976000046357513,0,0,0,0,0,1756478286.99815,0, 2025-08-29 11:38:06.998
44,6440.51537279319,482.37603618484,122.44245459931,-147.832635398489,0,0.0160000007599592,0.976000046357513,0,0,0,0,0,1756478287.01382,0, 2025-08-29 11:38:07.013
44,6335.19231024105,559.907902166247,192.120530673768,-105.283793602604,0,0.0160000007599592,0.976000046357513,0,0,0,0,0,1756478287.01382,0, 2025-08-29 11:38:07.013
45,6565.1437989166,486.501145835966,150.25235066982,-132.487825880293,0,0.0160000007599592,0.976000046357513,0,0,0,0,0,1756478287.01455,0, 2025-08-29 11:38:07.014
45,6536.44380665664,464.155243600719,101.427956748288,-181.192543003242,0,0.0160000007599592,0.976000046357513,0,0,0,0,0,1756478287.01455,0, 2025-08-29 11:38:07.014
46,6294.71163312066,562.724046832882,151.396760056261,-167.859799661208,0,0.0160000007599592,0.976000046357513,0,0,0,0,0,1756478287.02815,0, 2025-08-29 11:38:07.028
46,6497.85551891383,546.358244626783,169.924224436749,-132.487825880293,0,0.0160000007599592,0.976000046357513,0,0,0,0,0,1756478287.02815,0, 2025-08-29 11:38:07.028
47,6622.58492233604,486.336590237916,99.5729663702659,-168.835913549643,0,0.0160000007599592,0.976000046357513,0,0,0,0,0,1756478287.04396,0, 2025-08-29 11:38:07.043
47,6833.84626098303,564.941807506606,129.750219112728,-149.859661174472,0,0.0160000007599592,0.976000046357513,0,0,0,0,0,1756478287.04396,0, 2025-08-29 11:38:07.043
48,6915.20778451907,594.786209153012,184.027387169655,-115.403962882701,0,0.0160000007599592,0.976000046357513,0,0,0,0,0,1756478287.04453,0, 2025-08-29 11:38:07.044
48,7111.53383269301,500.896020765416,122.135782802943,-169.056567647029,0,0.0160000007599592,0.976000046357513,0,0,0,0,0,1756478287.04453,0, 2025-08-29 11:38:07.044
49,6915.40599921672,518.716644054279,98.1069255876355,-184.517314063851,0,0.0160000007599592,0.976000046357513,0,0,0,0,0,1756478287.05817,0, 2025-08-29 11:38:07.058
49,6856.10240561934,616.97503559012,189.697075502481,-107.374397677835,0,0.0160000007599592,0.976000046357513,0,0,0,0,0,1756478287.05817,0, 2025-08-29 11:38:07.058
50,7076.10950031271,548.53860630095,161.629126335029,-124.641515773255,0,0.0160000007599592,0.976000046357513,0,0,0,0,0,1756478287.07382,0, 2025-08-29 11:38:07.073
50,7056.11225524964,535.766847952269,116.04722567508,-140.992358379532,0,0.0160000007599592,0.976000046357513,0,0,0,0,0,1756478287.07382,0, 2025-08-29 11:38:07.073
51,6815.50205170037,633.99906018842,164.026402206626,-119.143862838391,0,0.0320000015199184,0.976000046357513,0,0,0,0,0,1756478287.07456,0, 2025-08-29 11:38:07.074
51,6996.27011605864,580.626947920769,178.144524539355,-114.79809908988,0,0.0320000015199184,0.976000046357513,0,0,0,0,0,1756478287.07456,0, 2025-08-29 11:38:07.074
52,7111.01398659917,515.73968368955,117.311311860103,-152.144740047399,0,0.0320000015199184,0.976000046357513,0,0,0,0,0,1756478287.10453,0, 2025-08-29 11:38:07.104
52,7335.69034638722,601.031842079014,150.499184066895,-133.28816447081,0,0.0320000015199184,0.976000046357513,0,0,0,0,0,1756478287.10453,0, 2025-08-29 11:38:07.104
53,7420.18964598607,628.389210254885,197.135736514349,-99.6290648696013,0,0.0320000015199184,0.976000046357513,0,0,0,0,0,1756478287.10525,0, 2025-08-29 11:38:07.105
53,7611.35089232121,530.602046113461,135.797637341078,-140.337875887286,0,0.0320000015199184,0.976000046357513,0,0,0,0,0,1756478287.10525,0, 2025-08-29 11:38:07.105
54,7433.61962672696,576.146547773853,133.770611565094,-141.927333368454,0,0.0320000015199184,0.976000046357513,0,0,0,0,0,1756478287.106,0, 2025-08-29 11:38:07.105
54,7341.91727981344,644.171588067897,198.396082799416,-105.79989979649,0,0.0320000015199184,0.976000046357513,0,0,0,0,0,1756478287.106,0, 2025-08-29 11:38:07.105
55,7570.64208130352,563.341130325571,168.095413358416,-121.724393807817,0,0.0320000015199184,0.976000046357513,0,0,0,0,0,1756478287.11818,0, 2025-08-29 11:38:07.118
55,7544.05887241848,537.561999931,105.859738195781,-166.075867382344,0,0.0320000015199184,0.976000046357513,0,0,0,0,0,1756478287.11818,0, 2025-08-29 11:38:07.118
56,7311.84474426974,653.098729262129,186.43588274112,-104.382477713283,0,0.0320000015199184,0.976000046357513,0,0,0,0,0,1756478287.13385,0, 2025-08-29 11:38:07.133
56,7506.13628686778,609.196043682285,192.846071265172,-100.100292264018,0,0.0320000015199184,0.976000046357513,0,0,0,0,0,1756478287.13385,0, 2025-08-29 11:38:07.133
57,7635.06559794024,559.197321174666,127.341723541264,-138.280930911656,0,0.0320000015199184,0.976000046357513,0,0,0,0,0,1756478287.13458,0, 2025-08-29 11:38:07.134
57,7827.04775231564,615.075166412629,141.994651567657,-130.692673901562,0,0.0320000015199184,0.976000046357513,0,0,0,0,0,1756478287.13458,0, 2025-08-29 11:38:07.134
58,7897.27933358355,626.392103678547,192.165409473237,-97.3103268970735,0,0.0320000015199184,0.976000046357513,0,0,0,0,0,1756478287.14817,0, 2025-08-29 11:38:07.148
58,8112.94440442836,530.553427414037,117.101877462585,-139.51883779699,0,0.0320000015199184,0.976000046357513,0,0,0,0,0,1756478287.14817,0, 2025-08-29 11:38:07.148
59,7913.51049939124,587.426086040214,103.181969827507,-156.561561895069,0,0.0320000015199184,0.976000046357513,0,0,0,0,0,1756478287.16385,0, 2025-08-29 11:38:07.163
59,7825.10674423864,668.185485683382,166.951003971975,-141.489765073638,0,0.0320000015199184,0.976000046357513,0,0,0,0,0,1756478287.16385,0, 2025-08-29 11:38:07.163
60,8060.6194641483,520.698791030794,117.535705857445,-160.948464543093,0,0.0320000015199184,0.976000046357513,0,0,0,0,0,1756478287.16458,0, 2025-08-29 11:38:07.164
60,8021.88158040727,489.545424399898,74.1640860713087,-189.506340604741,0,0.0320000015199184,0.976000046357513,0,0,0,0,0,1756478287.16458,0, 2025-08-29 11:38:07.164
61,8264.44214178342,592.310395382345,129.264032118488,-148.363701192196,0,0.0160000007599592,0.976000046357513,0,0,0,0,0,1756478287.17817,0, 2025-08-29 11:38:07.178
61,8485.66096406244,546.17872942891,136.6989532304,-123.620523085352,0,0.0160000007599592,0.976000046357513,0,0,0,0,0,1756478287.17817,0, 2025-08-29 11:38:07.178
62,8580.47116783913,481.504639495164,65.4388994746842,-168.013135559391,0,0.0160000007599592,0.976000046357513,0,0,0,0,0,1756478287.19385,0, 2025-08-29 11:38:07.193
62,8773.54163310165,564.350903313607,88.6113196001388,-168.570380652789,0,0.0160000007599592,0.976000046357513,0,0,0,0,0,1756478287.19385,0, 2025-08-29 11:38:07.193
63,8875.03877799911,592.033642785624,145.188526129816,-136.91586742783,0,0.0160000007599592,0.976000046357513,0,0,0,0,0,1756478287.19458,0, 2025-08-29 11:38:07.194
63,9057.48231753753,498.34166909568,80.4770371965133,-169.509095541667,0,0.0160000007599592,0.976000046357513,0,0,0,0,0,1756478287.19458,0, 2025-08-29 11:38:07.194
64,8847.73376842262,532.78988758754,65.4538590745069,-180.923270206433,0,0.0160000007599592,0.976000046357513,0,0,0,0,0,1756478287.20817,0, 2025-08-29 11:38:07.208
64,8764.58083280781,596.805755129084,133.822970164474,-141.871234869119,0,0.0160000007599592,0.976000046357513,0,0,0,0,0,1756478287.20817,0, 2025-08-29 11:38:07.208
65,8995.56453387113,499.321522884071,101.080146052409,-163.592573811766,0,0.0160000007599592,0.976000046357513,0,0,0,0,0,1756478287.22387,0, 2025-08-29 11:38:07.223
65,8941.20882791514,484.825670655817,52.4315274287947,-190.489934293088,0,0.0160000007599592,0.976000046357513,0,0,0,0,0,1756478287.22387,0, 2025-08-29 11:38:07.223
66,8718.5314446534,588.312442329712,115.905109476764,-135.947233339306,0,0.0160000007599592,0.976000046357513,0,0,0,0,0,1756478287.22461,0, 2025-08-29 11:38:07.224
66,8920.87125195609,546.036613230594,130.509418803733,-136.167887436692,0,0.0160000007599592,0.976000046357513,0,0,0,0,0,1756478287.22461,0, 2025-08-29 11:38:07.224
67,9003.75491477409,472.173589105718,46.6085031977855,-193.676329055335,0,0.0160000007599592,0.976000046357513,0,0,0,0,0,1756478287.23818,0, 2025-08-29 11:38:07.238
67,9197.95482982323,549.948548584245,68.1278875428252,-186.664016638417,0,0.0160000007599592,0.976000046357513,0,0,0,0,0,1756478287.23818,0, 2025-08-29 11:38:07.238
68,9286.17158997804,599.259129500017,136.123008637223,-144.582662336994,0,0.0160000007599592,0.976000046357513,0,0,0,0,0,1756478287.25388,0, 2025-08-29 11:38:07.253
68,9510.93583741505,503.985178128816,75.9517582501285,-180.306186713744,0,0.0160000007599592,0.976000046357513,0,0,0,0,0,1756478287.25388,0, 2025-08-29 11:38:07.253
69,9309.01489890739,509.131280467846,63.2136590010487,-186.316205942538,0,0.0160000007599592,0.976000046357513,0,0,0,0,0,1756478287.25458,0, 2025-08-29 11:38:07.254
69,9215.95870820992,574.732865590602,128.261738930363,-139.627294895705,0,0.0160000007599592,0.976000046357513,0,0,0,0,0,1756478287.25458,0, 2025-08-29 11:38:07.254
70,9455.11035077646,498.461345894262,102.52000753535,-148.958345285151,0,0.0160000007599592,0.976000046357513,0,0,0,0,0,1756478287.28455,0, 2025-08-29 11:38:07.284
70,9417.02694952767,480.835197403096,37.1054174103774,-196.496213621926,0,0.0160000007599592,0.976000046357513,0,0,0,0,0,1756478287.28455,0, 2025-08-29 11:38:07.284
71,9191.17813110352,593.825054864399,83.2445631637238,-157.414259084966,0,0.0320000015199184,0.976000046357513,0,0,0,0,0,1756478287.28528,0, 2025-08-29 11:38:07.285
71,9420.95384448115,556.45223460719,125.232419966254,-130.045671209227,0,0.0320000015199184,0.976000046357513,0,0,0,0,0,1756478287.28528,0, 2025-08-29 11:38:07.285
72,9562.26970420685,484.432981160469,92.5157751538791,-153.0984145361,0.0160000007599592,0.0320000015199184,0.976000046357513,0,0,0,0,0,1756478287.28609,0, 2025-08-29 11:38:07.286
72,9753.18224719493,557.660222292878,100.556560058612,-163.715990510304,0.0160000007599592,0.0320000015199184,0.976000046357513,0,0,0,0,0,1756478287.28609,0, 2025-08-29 11:38:07.286
73,9845.3520816029,580.189379625954,150.600161365699,-121.709434207995,0.0160000007599592,0.0320000015199184,0.976000046357513,0,0,0,0,0,1756478287.29815,0, 2025-08-29 11:38:07.298
73,10070.9166676304,491.826763372868,89.0638474947773,-167.863539561164,0.0160000007599592,0.0320000015199184,0.976000046357513,0,0,0,0,0,1756478287.29815,0, 2025-08-29 11:38:07.298
74,9855.80884187901,536.593365842476,79.9534512027167,-184.221861967351,0.0160000007599592,0.0320000015199184,0.976000046357513,0,0,0,0,0,1756478287.31383,0, 2025-08-29 11:38:07.313
74,9763.47819177294,595.504269944504,144.399407239165,-140.506171385292,0.0160000007599592,0.0320000015199184,0.976000046357513,0,0,0,0,0,1756478287.31383,0, 2025-08-29 11:38:07.313
75,9530.52917328291,514.542915703729,115.834051377606,-149.208918582182,0.0160000007599592,0.0320000015199184,0.976000046357513,0,0,0,0,0,1756478287.31456,0, 2025-08-29 11:38:07.314
75,9477.28421761375,488.303777614608,59.1970064486377,-173.484609194566,0.0160000007599592,0.0320000015199184,0.976000046357513,0,0,0,0,0,1756478287.31456,0, 2025-08-29 11:38:07.314
76,9710.46884980099,575.45466628205,114.644763191696,-155.738783904817,0.0160000007599592,0.0320000015199184,0.976000046357513,0,0,0,0,0,1756478287.32815,0, 2025-08-29 11:38:07.328
76,9926.80710263783,543.025993766263,131.57903019106,-139.148587701377,0.0160000007599592,0.0320000015199184,0.976000046357513,0,0,0,0,0,1756478287.32815,0, 2025-08-29 11:38:07.328
77,10028.4875026331,479.013866124675,58.1348748612218,-188.612504515331,0.0160000007599592,0.0320000015199184,0.976000046357513,0,0,0,0,0,1756478287.34382,0, 2025-08-29 11:38:07.343
77,10219.3439471219,551.055558971129,73.8461945750751,-167.878499160986,0.0160000007599592,0.0320000015199184,0.976000046357513,0,0,0,0,0,1756478287.34382,0, 2025-08-29 11:38:07.343
78,10316.0166210765,578.577482745051,133.082469973248,-136.822369928937,0.0160000007599592,0.0320000015199184,0.976000046357513,0,0,0,0,0,1756478287.34455,0, 2025-08-29 11:38:07.344
78,10538.6491255388,489.825916896574,67.8960137455724,-177.650857745204,0.0160000007599592,0.0320000015199184,0.976000046357513,0,0,0,0,0,1756478287.34455,0, 2025-08-29 11:38:07.344
79,10316.1362978751,507.167832991108,51.6461484380998,-187.610211327206,0.0160000007599592,0.0320000015199184,0.976000046357513,0,0,0,0,0,1756478287.37453,0, 2025-08-29 11:38:07.374
79,10237.3328659087,578.057636651211,123.676621584687,-133.426540769171,0.0160000007599592,0.0320000015199184,0.976000046357513,0,0,0,0,0,1756478287.37453,0, 2025-08-29 11:38:07.374
80,10474.8464322947,492.772958061658,90.6944438754581,-164.894058996346,0.0160000007599592,0.0320000015199184,0.976000046357513,0,0,0,0,0,1756478287.37527,0, 2025-08-29 11:38:07.375
80,10429.2271326352,478.183608334512,44.7647325196303,-201.653535660822,0.0160000007599592,0.0320000015199184,0.976000046357513,0,0,0,0,0,1756478287.37527,0, 2025-08-29 11:38:07.375
81,10212.2867559055,580.144500826486,110.149403444957,-145.872927821707,0.0160000007599592,0.0320000015199184,0.976000046357513,0,0,0,0,0,1756478287.3761,0, 2025-08-29 11:38:07.376
81,10416.7283869833,540.553919895552,129.043378021102,-152.844101339113,0.0160000007599592,0.0320000015199184,0.976000046357513,0,0,0,0,0,1756478287.3761,0, 2025-08-29 11:38:07.376
82,10512.6605607467,454.091172819957,51.6087494385429,-201.23840676574,0,0.0320000015199184,0.976000046357513,0,0,0,0,0,1756478287.38812,0, 2025-08-29 11:38:07.388
82,10715.2303718966,543.646817158908,86.1616851291619,-172.860045901965,0,0.0320000015199184,0.976000046357513,0,0,0,0,0,1756478287.38812,0, 2025-08-29 11:38:07.388
83,10787.3506026422,575.536944081076,140.827802781481,-140.775444182102,0,0.0320000015199184,0.976000046357513,0,0,0,0,0,1756478287.40385,0, 2025-08-29 11:38:07.403
83,10995.8949039713,495.630241627805,98.4397766836919,-173.07322019944,0,0.0320000015199184,0.976000046357513,0,0,0,0,0,1756478287.40385,0, 2025-08-29 11:38:07.403
84,10806.1435999195,526.540514761582,84.3066947511397,-193.253720360342,0,0.0320000015199184,0.976000046357513,0,0,0,0,0,1756478287.40458,0, 2025-08-29 11:38:07.404
84,10718.9814915522,594.801168752834,145.663493424188,-151.355621156748,0,0.0320000015199184,0.976000046357513,0,0,0,0,0,1756478287.40458,0, 2025-08-29 11:38:07.404
85,10496.6051702369,507.343608289026,110.257860543672,-168.357206355315,0,0.0320000015199184,0.976000046357513,0,0,0,0,0,1756478287.41818,0, 2025-08-29 11:38:07.418
85,10468.3128270721,472.794412498362,49.6789610614069,-193.657629555557,0,0.0320000015199184,0.976000046357513,0,0,0,0,0,1756478287.41818,0, 2025-08-29 11:38:07.418
86,10234.105332247,567.155828280374,107.894243771676,-160.522115948144,0,0.0320000015199184,0.976000046357513,0,0,0,0,0,1756478287.43385,0, 2025-08-29 11:38:07.433
86,10459.4455242772,519.135512849316,110.796406137291,-179.232835426461,0,0.0320000015199184,0.976000046357513,0,0,0,0,0,1756478287.43385,0, 2025-08-29 11:38:07.433
87,10576.2612993931,447.449110498652,43.2463331376202,-208.71820667712,0,0.0320000015199184,0.976000046357513,0,0,0,0,0,1756478287.43458,0, 2025-08-29 11:38:07.434
87,10774.623723093,532.857205786742,82.8219544687308,-178.125825039577,0,0.0320000015199184,0.976000046357513,0,0,0,0,0,1756478287.43458,0, 2025-08-29 11:38:07.434
88,10884.086854896,545.049279642291,122.113343403209,-163.117606517393,0,0.0320000015199184,0.976000046357513,0,0,0,0,0,1756478287.44819,0, 2025-08-29 11:38:07.448
88,11080.3493247707,454.9737892095,62.3422623113729,-200.905555669684,0,0.0320000015199184,0.976000046357513,0,0,0,0,0,1756478287.44819,0, 2025-08-29 11:38:07.448
89,10880.5002908385,477.226193945855,45.1836013146676,-212.566563731525,0,0.0320000015199184,0.976000046357513,0,0,0,0,0,1756478287.46385,0, 2025-08-29 11:38:07.463
89,10802.7028919603,547.633550511673,124.712573872413,-162.092873929534,0,0.0320000015199184,0.976000046357513,0,0,0,0,0,1756478287.46385,0, 2025-08-29 11:38:07.463
90,10586.0486175772,470.056805730797,105.474528500345,-174.299907384906,0,0.0320000015199184,0.976000046357513,0,0,0,0,0,1756478287.46458,0, 2025-08-29 11:38:07.464
90,10512.5184445484,441.001522975042,73.2104115826078,-182.546386787202,0,0.0320000015199184,0.976000046357513,0,0,0,0,0,1756478287.46458,0, 2025-08-29 11:38:07.464
91,10317.9202301539,551.41084946692,188.017860422377,-96.7717813034542,0,0.0320000015199184,0.976000046357513,0,0,0,0,0,1756478287.47818,0, 2025-08-29 11:38:07.478
91,10559.9291562866,513.076874921098,226.856721462216,-61.556883320678,0,0.0320000015199184,0.976000046357513,0,0,0,0,0,1756478287.47818,0, 2025-08-29 11:38:07.478
92,10681.3487482481,432.108040880412,194.259753448423,-78.5135897197761,0,0.0320000015199184,0.976000046357513,0,0,0,0,0,1756478287.49385,0, 2025-08-29 11:38:07.493
92,10885.5865547783,504.452665623277,265.512327404227,-10.7540823225863,0,0.0320000015199184,0.976000046357513,0,0,0,0,0,1756478287.49385,0, 2025-08-29 11:38:07.493
93,11003.7599135782,526.44701726269,338.481515439693,49.6153827621602,0,0.0320000015199184,0.976000046357513,0,0,0,0,0,1756478287.49458,0, 2025-08-29 11:38:07.494
93,11214.3275007834,437.916105511598,297.398714426439,40.4227086710744,0,0.0320000015199184,0.976000046357513,0,0,0,0,0,1756478287.49458,0, 2025-08-29 11:38:07.494
94,11016.4568739277,460.643477542326,325.197390797082,62.7536513064988,0,0.0320000015199184,0.976000046357513,0,0,0,0,0,1756478287.50846,0, 2025-08-29 11:38:07.508
94,10939.7777051362,524.195597489365,382.118668122683,83.1847247644328,0,0.0320000015199184,0.976000046357513,0,0,0,0,0,1756478287.50846,0, 2025-08-29 11:38:07.508
95,11167.3356578401,436.655759226531,342.644024090376,59.9449864397757,0,0.0320000015199184,0.976000046357513,0,0,0,0,0,1756478287.52386,0, 2025-08-29 11:38:07.523
95,11101.3675625217,418.797736938112,266.522100392263,18.536814130377,0,0.0320000015199184,0.976000046357513,0,0,0,0,0,1756478287.52386,0, 2025-08-29 11:38:07.523
96,10866.5579438037,501.767417455092,313.566301934887,26.6112581347115,0,0.0320000015199184,0.976000046357513,0,0,0,0,0,1756478287.52459,0, 2025-08-29 11:38:07.524
96,11069.9898018935,471.448048514314,308.263123797718,12.638991900254,0,0.0320000015199184,0.976000046357513,0,0,0,0,0,1756478287.52459,0, 2025-08-29 11:38:07.524
97,11144.0772200157,391.593704660423,200.849457170349,-66.1607001661323,0,0.0320000015199184,0.976000046357513,0,0,0,0,0,1756478287.53821,0, 2025-08-29 11:38:07.538
97,11319.861867683,456.219175894745,201.653535660822,-83.8728663562797,0,0.0320000015199184,0.976000046357513,0,0,0,0,0,1756478287.53821,0, 2025-08-29 11:38:07.538
98,11402.7866694005,485.588610246778,217.869741868693,-88.4916428015567,0,0.0320000015199184,0.976000046357513,0,0,0,0,0,1756478287.55384,0, 2025-08-29 11:38:07.553
98,11594.8043528255,416.318183267489,135.109495749231,-125.419414964039,0,0.0320000015199184,0.976000046357513,0,0,0,0,0,1756478287.55384,0, 2025-08-29 11:38:07.553
99,11397.094541668,466.833011968993,108.642223762814,-145.435359526891,0,0.0320000015199184,0.976000046357513,0,0,0,0,0,1756478287.55457,0, 2025-08-29 11:38:07.554
99,11327.0312558981,549.668056087568,169.703570339363,-108.425309565384,0,0.0320000015199184,0.976000046357513,0,0,0,0,0,1756478287.55457,0, 2025-08-29 11:38:07.554
100,11548.8896010695,480.124616411515,122.90246229386,-145.715852023568,0,0.0320000015199184,0.976000046357513,0,0,0,0,0,1756478287.56884,0, 2025-08-29 11:38:07.568
100,11470.609755097,457.939529874362,55.4084877935238,-178.71298933262,0,0.0320000015199184,0.976000046357513,0,0,0,0,0,1756478287.56884,0, 2025-08-29 11:38:07.568
0,-59.4251403459348,553.151772896294,108.258884017356,-144.917383383028,0,0.0320000015199184,0.976000046357513,0,0,0,0,0,1756478287.56957,0, 2025-08-29 11:38:07.569
1,163.659892010968,517.738660215866,116.864393815398,-154.6598227676,0,0.0320000015199184,0.976000046357513,0,0,0,0,0,1756478287.5832,0, 2025-08-29 11:38:07.583
1,262.109018444549,465.937305929605,38.6668256418779,-198.577467947267,0,0.0320000015199184,0.976000046357513,0,0,0,0,0,1756478287.5832,0, 2025-08-29 11:38:07.583
2,463.05197311379,535.929533600342,64.4646555362269,-180.670826959424,0,0.0320000015199184,0.976000046357513,0,0,0,0,0,1756478287.59888,0, 2025-08-29 11:38:07.598
2,553.845524338074,537.829402777832,113.543362654746,-147.060346057639,0,0.0320000015199184,0.976000046357513,0,0,0,0,0,1756478287.59888,0, 2025-08-29 11:38:07.598
3,760.403938790783,445.943800766487,58.1778837107122,-182.62679463625,0,0.0320000015199184,0.976000046357513,0,0,0,0,0,1756478287.59961,0, 2025-08-29 11:38:07.599
3,542.349071874283,490.235435941722,44.8339206688106,-195.428472184576,0,0.0320000015199184,0.976000046357513,0,0,0,0,0,1756478287.59961,0, 2025-08-29 11:38:07.599
4,472.828071597964,576.081099524628,125.563401112333,-147.224901655689,0,0.0320000015199184,0.976000046357513,0,0,0,0,0,1756478287.6132,0, 2025-08-29 11:38:07.613
4,713.273719549179,504.196482476313,87.536098362878,-171.018145173788,0,0.0320000015199184,0.976000046357513,0,0,0,0,0,1756478287.6132,0, 2025-08-29 11:38:07.613
5,666.5212302031,480.852026952896,38.5471488432959,-199.202031239867,0,0.0320000015199184,0.976000046357513,0,0,0,0,0,1756478287.62891,0, 2025-08-29 11:38:07.628
5,429.553689210676,580.550279971678,103.464332274161,-155.740653854795,0,0.0320000015199184,0.976000046357513,0,0,0,0,0,1756478287.62891,0, 2025-08-29 11:38:07.628
6,652.526524568908,549.748463936616,114.713951340877,-157.685401831754,0,0.0320000015199184,0.976000046357513,0,0,0,0,0,1756478287.62961,0, 2025-08-29 11:38:07.629
6,734.905300892889,493.69110350078,49.725709810853,-203.8245475851,0,0.0320000015199184,0.976000046357513,0,0,0,0,0,1756478287.62961,0, 2025-08-29 11:38:07.629
7,942.905446778517,571.997128773015,80.0375989517197,-180.37911476288,0,0.0320000015199184,0.976000046357513,0,0,0,0,0,1756478287.64329,0, 2025-08-29 11:38:07.643
7,1062.44760896219,608.584570039529,145.257714278996,-140.395844336599,0,0.0320000015199184,0.976000046357513,0,0,0,0,0,1756478287.64329,0, 2025-08-29 11:38:07.643
8,1245.39603499463,495.620891877916,76.8699036892504,-176.527017808519,0,0.0320000015199184,0.976000046357513,0,0,0,0,0,1756478287.659,0, 2025-08-29 11:38:07.659
8,1041.72482330771,534.089502822142,55.8142669387162,-194.407479496673,0,0.0320000015199184,0.976000046357513,0,0,0,0,0,1756478287.659,0, 2025-08-29 11:38:07.659
9,969.48117586365,611.999098699074,123.046448442154,-155.617237156257,0,0.0320000015199184,0.976000046357513,0,0,0,0,0,1756478287.65957,0, 2025-08-29 11:38:07.659
9,1201.57562721381,547.018336968962,99.342962522991,-170.576836979017,0,0.0320000015199184,0.976000046357513,0,0,0,0,0,1756478287.65957,0, 2025-08-29 11:38:07.659
10,1156.29291855032,515.289025744889,45.5968602597713,-199.078614541329,0,0.0320000015199184,0.976000046357513,0,0,0,0,0,1756478287.67317,0, 2025-08-29 11:38:07.673
10,936.727132051717,590.745247250888,104.552643161267,-149.734374525957,0,0.0320000015199184,0.976000046357513,0,0,0,0,0,1756478287.67317,0, 2025-08-29 11:38:07.673
11,1151.59934410593,568.466663214844,120.222823975608,-143.57101939898,0,0.0320000015199184,0.976000046357513,0,0,0,0,0,1756478287.68883,0, 2025-08-29 11:38:07.688
11,1240.27611195529,494.540060790721,50.0436013070866,-196.299868874252,0,0.0320000015199184,0.976000046357513,0,0,0,0,0,1756478287.68883,0, 2025-08-29 11:38:07.688
12,1462.61877417099,564.356513163541,79.6449094563723,-168.310457605869,0,0.0320000015199184,0.976000046357513,0,0,0,0,0,1756478287.68959,0, 2025-08-29 11:38:07.689
12,1547.62670016382,607.537398051936,133.088079823181,-139.509488047101,0,0.0320000015199184,0.976000046357513,0,0,0,0,0,1756478287.68959,0, 2025-08-29 11:38:07.689
13,1756.55995108839,537.51899108151,90.0904500326142,-175.805217117071,0,0.0320000015199184,0.976000046357513,0,0,0,0,0,1756478287.70318,0, 2025-08-29 11:38:07.703
13,1572.07816607412,565.732796347234,69.8987301718444,-179.376821574755,0,0.0320000015199184,0.976000046357513,0,0,0,0,0,1756478287.70318,0, 2025-08-29 11:38:07.703
14,1489.27304115519,618.027817427646,137.422623871826,-134.800954002887,0,0.0320000015199184,0.976000046357513,0,0,0,0,0,1756478287.7188,0, 2025-08-29 11:38:07.718
14,1707.49246366974,531.924100747798,104.279630464502,-171.579130167142,0,0.0320000015199184,0.976000046357513,0,0,0,0,0,1756478287.7188,0, 2025-08-29 11:38:07.718
15,1682.30797736812,514.570964953396,64.3412388376892,-192.806802315637,0,0.0320000015199184,0.976000046357513,0,0,0,0,0,1756478287.71953,0, 2025-08-29 11:38:07.719
15,1446.28663106449,599.418075248133,118.648326094262,-149.876490724273,0,0.0320000015199184,0.976000046357513,0,0,0,0,0,1756478287.71953,0, 2025-08-29 11:38:07.719
16,1664.61825057771,595.670695492532,144.760307584889,-122.358306850307,0,0.0320000015199184,0.976000046357513,0,0,0,0,0,1756478287.73321,0, 2025-08-29 11:38:07.733
16,1770.19188642688,513.931442060974,75.2131280088797,-169.724139789119,0,0.0320000015199184,0.976000046357513,0,0,0,0,0,1756478287.73321,0, 2025-08-29 11:38:07.733
17,1997.71431008121,597.282592373434,112.286756269634,-152.999307187274,0,0.0320000015199184,0.976000046357513,0,0,0,0,0,1756478287.74888,0, 2025-08-29 11:38:07.748
17,2065.05868858332,632.804162152577,155.475120957941,-98.9839321272448,0,0.0320000015199184,0.976000046357513,0,0,0,0,0,1756478287.74888,0, 2025-08-29 11:38:07.748
18,2278.39006185578,537.649887579959,102.065609690733,-138.2603614619,0,0.0320000015199184,0.976000046357513,0,0,0,0,0,1756478287.7496,0, 2025-08-29 11:38:07.749
18,2091.48482167022,567.602746325079,92.6784608019516,-153.238660784438,0,0.0320000015199184,0.976000046357513,0,0,0,0,0,1756478287.7496,0, 2025-08-29 11:38:07.749
19,1998.69042396965,643.930364520755,159.77974580694,-108.053189519793,0,0.0320000015199184,0.976000046357513,0,0,0,0,0,1756478287.76318,0, 2025-08-29 11:38:07.763
19,2239.43152401736,577.966009102296,131.775374938734,-118.061161801219,0,0.0320000015199184,0.976000046357513,0,0,0,0,0,1756478287.76318,0, 2025-08-29 11:38:07.763
20,2209.66192037007,556.1137736612,91.6537282140926,-154.577544968575,0,0.0320000015199184,0.976000046357513,0,0,0,0,0,1756478287.77881,0, 2025-08-29 11:38:07.778
20,1972.15957368398,643.698490723502,157.057098639198,-111.669672776945,0,0.0320000015199184,0.976000046357513,0,0,0,0,0,1756478287.77881,0, 2025-08-29 11:38:07.778
21,2166.08460608637,598.808471555356,160.157475702465,-111.258283781819,0,0.0320000015199184,0.976000046357513,0,0,0,0,0,1756478287.77957,0, 2025-08-29 11:38:07.779
21,2265.68188180635,529.010718682315,89.6753211375326,-155.478860857897,0,0.0320000015199184,0.976000046357513,0,0,0,0,0,1756478287.77957,0, 2025-08-29 11:38:07.779
22,2482.10428239219,613.25196518423,122.111473453231,-127.732543086633,0,0.0320000015199184,0.976000046357513,0,0,0,0,0,1756478287.79315,0, 2025-08-29 11:38:07.793
22,2570.33974204678,650.078760047909,188.360061268322,-94.6680875783786,0,0.0320000015199184,0.976000046357513,0,0,0,0,0,1756478287.79315,0, 2025-08-29 11:38:07.793
23,2756.25764864404,540.473512046505,123.053928242065,-151.428549205884,0,0.0320000015199184,0.976000046357513,0,0,0,0,0,1756478287.80901,0, 2025-08-29 11:38:07.809
23,2571.87684092857,570.198236894328,111.067548884079,-147.157583456486,0,0.0320000015199184,0.976000046357513,0,0,0,0,0,1756478287.80901,0, 2025-08-29 11:38:07.809
24,2476.04564446397,642.337167139631,177.589149395935,-87.0499113686383,0,0.0320000015199184,0.976000046357513,0,0,0,0,0,1756478287.80958,0, 2025-08-29 11:38:07.809
24,2704.85272375308,563.458937174175,147.699868950062,-105.674613147974,0,0.0320000015199184,0.976000046357513,0,0,0,0,0,1756478287.80958,0, 2025-08-29 11:38:07.809
25,2665.97646371368,537.810703278054,94.5297112800181,-140.766094432212,0,0.0320000015199184,0.976000046357513,0,0,0,0,0,1756478287.82318,0, 2025-08-29 11:38:07.823
25,2432.90215857513,632.501230256166,154.816898565739,-105.319322652183,0,0.0320000015199184,0.976000046357513,0,0,0,0,0,1756478287.82318,0, 2025-08-29 11:38:07.823
26,2620.39082315378,596.82632457884,158.676475320011,-114.609234142117,0,0.0320000015199184,0.976000046357513,0,0,0,0,0,1756478287.83885,0, 2025-08-29 11:38:07.838
26,2731.0582027426,535.630341603886,97.7684646416456,-138.406217560172,0,0.0320000015199184,0.976000046357513,0,0,0,0,0,1756478287.83885,0, 2025-08-29 11:38:07.838
27,2956.75929511851,605.727286473382,127.7437627865,-134.628918604925,0,0.0320000015199184,0.976000046357513,0,0,0,0,0,1756478287.83956,0, 2025-08-29 11:38:07.839
27,3018.32926808903,627.904893210623,177.828502993099,-100.951119503938,0,0.0320000015199184,0.976000046357513,0,0,0,0,0,1756478287.83956,0, 2025-08-29 11:38:07.839
28,3226.84739011852,532.26069174381,121.524309160188,-146.069272569381,0,0.0320000015199184,0.976000046357513,0,0,0,0,0,1756478287.85318,0, 2025-08-29 11:38:07.853
28,3044.86759817461,547.777536659967,90.0642707329243,-159.686248308048,0,0.0320000015199184,0.976000046357513,0,0,0,0,0,1756478287.85318,0, 2025-08-29 11:38:07.853
29,2958.54696729733,627.687979013193,165.288618441671,-101.07079630252,0,0.0320000015199184,0.976000046357513,0,0,0,0,0,1756478287.86892,0, 2025-08-29 11:38:07.868
29,3184.82213431643,541.651580532547,128.454343778081,-133.48824911844,0,0.0320000015199184,0.976000046357513,0,0,0,0,0,1756478287.86892,0, 2025-08-29 11:38:07.868
30,3157.99957183422,505.374550962355,72.9654481355101,-177.742485294119,0,0.0320000015199184,0.976000046357513,0,0,0,0,0,1756478287.86965,0, 2025-08-29 11:38:07.869
30,2915.38852180867,597.28633227339,134.808433802798,-142.060099816881,0,0.0320000015199184,0.976000046357513,0,0,0,0,0,1756478287.86965,0, 2025-08-29 11:38:07.869
31,3103.43069158075,565.35506645171,148.197275644168,-124.815421121195,0,0.0320000015199184,0.976000046357513,0,0,0,0,0,1756478287.88318,0, 2025-08-29 11:38:07.883
31,3222.93919466482,484.891118905041,82.3413773244247,-174.111042437144,0,0.0320000015199184,0.976000046357513,0,0,0,0,0,1756478287.88318,0, 2025-08-29 11:38:07.883
32,3442.55920971278,562.580060684588,110.278429993428,-142.426610012539,0,0.0320000015199184,0.976000046357513,0,0,0,0,0,1756478287.8989,0, 2025-08-29 11:38:07.898
32,3492.95062171575,577.65933730593,150.620730815455,-112.23813757021,0,0.0320000015199184,0.976000046357513,0,0,0,0,0,1756478287.8989,0, 2025-08-29 11:38:07.898
33,3714.44245669153,500.991388214286,107.892373821698,-159.865763505921,0,0.0320000015199184,0.976000046357513,0,0,0,0,0,1756478287.89961,0, 2025-08-29 11:38:07.899
33,3534.7589633204,534.321376619395,89.7127201370895,-164.910888546146,0,0.0320000015199184,0.976000046357513,0,0,0,0,0,1756478287.89961,0, 2025-08-29 11:38:07.899
34,3426.06251100823,620.10720180301,145.500807776116,-121.023162566125,0,0.0320000015199184,0.976000046357513,0,0,0,0,0,1756478287.91322,0, 2025-08-29 11:38:07.913
34,3661.63132941723,540.578229245264,109.493051002733,-158.422162123024,0,0.0320000015199184,0.976000046357513,0,0,0,0,0,1756478287.91322,0, 2025-08-29 11:38:07.913
35,3641.24139485881,491.82489342289,104.713458859362,-159.170142114162,0,0.0320000015199184,0.976000046357513,0,0,0,0,0,1756478287.92893,0, 2025-08-29 11:38:07.928
35,3396.1694906624,594.212134509813,164.020792356692,-134.015575012192,0,0.0320000015199184,0.976000046357513,0,0,0,0,0,1756478287.92893,0, 2025-08-29 11:38:07.928
36,3588.87531567924,562.206070689019,175.569603419863,-116.733497316949,0,0.0320000015199184,0.976000046357513,0,0,0,0,0,1756478287.92963,0, 2025-08-29 11:38:07.929
36,3691.6477664616,483.911265116651,100.812743205577,-165.531711938791,0,0.0320000015199184,0.976000046357513,0,0,0,0,0,1756478287.92963,0, 2025-08-29 11:38:07.929
37,3910.63199851708,565.616859448608,138.279060961679,-154.973974363878,0,0.0320000015199184,0.976000046357513,0,0,0,0,0,1756478287.94313,0, 2025-08-29 11:38:07.943
37,3982.82702726172,598.183908262756,183.307456428185,-122.605140247382,0,0.0320000015199184,0.976000046357513,0,0,0,0,0,1756478287.94313,0, 2025-08-29 11:38:07.943
38,4180.67147481767,505.352111562621,126.094466906041,-161.941407981329,0,0.0320000015199184,0.976000046357513,0,0,0,0,0,1756478287.95898,0, 2025-08-29 11:38:07.958
38,4010.97351432825,526.624662510585,106.833982134238,-169.634382190183,0,0.0320000015199184,0.976000046357513,0,0,0,0,0,1756478287.95898,0, 2025-08-29 11:38:07.958
39,3911.68665030459,596.762746279594,163.699160960503,-137.777914367616,0,0.0320000015199184,0.976000046357513,0,0,0,0,0,1756478287.95962,0, 2025-08-29 11:38:07.959
39,4139.41663840646,517.473127319012,140.530480735004,-151.682862402871,0,0.0320000015199184,0.976000046357513,0,0,0,0,0,1756478287.95962,0, 2025-08-29 11:38:07.959
40,4103.63327563042,473.772396336775,84.0654712039977,-187.290449880995,0,0.0320000015199184,0.976000046357513,0,0,0,0,0,1756478287.97318,0, 2025-08-29 11:38:07.973
40,3867.54835102754,573.451949855778,153.534112880938,-146.36472466588,0,0.0320000015199184,0.976000046357513,0,0,0,0,0,1756478287.97318,0, 2025-08-29 11:38:07.973
41,4054.31147501478,546.019783680793,167.094990120269,-134.771034803241,0,0.0320000015199184,0.976000046357513,0,0,0,0,0,1756478287.98893,0, 2025-08-29 11:38:07.988
41,4170.3381312401,468.248564102221,90.5541976271197,-179.72837217059,0,0.0320000015199184,0.976000046357513,0,0,0,0,0,1756478287.98893,0, 2025-08-29 11:38:07.988
42,4388.29763070773,537.350695583504,115.323555033654,-169.503485691734,0,0.0320000015199184,0.976000046357513,0,0,0,0,0,1756478287.98962,0, 2025-08-29 11:38:07.989
42,4467.69944666699,576.137198023964,176.220346012153,-125.578360712156,0,0.0320000015199184,0.976000046357513,0,0,0,0,0,1756478287.98962,0, 2025-08-29 11:38:07.989
43,4664.42566413619,479.864693364594,108.561815913767,-176.351242510602,0,0.0320000015199184,0.976000046357513,0,0,0,0,0,1756478288.00315,0, 2025-08-29 11:38:08.003
43,4479.31557592936,499.401930733118,87.1920275669545,-192.17101932317,0,0.0320000015199184,0.976000046357513,0,0,0,0,0,1756478288.00315,0, 2025-08-29 11:38:08.003
44,4377.58281733468,580.636297670659,153.036706186831,-133.925817413256,0,0.0320000015199184,0.976000046357513,0,0,0,0,0,1756478288.01892,0, 2025-08-29 11:38:08.018
44,4607.24259381369,503.822492480744,129.015328771435,-154.22599437274,0,0.0320000015199184,0.976000046357513,0,0,0,0,0,1756478288.01892,0, 2025-08-29 11:38:08.018
45,4588.98814212997,470.746817272622,72.0416928464547,-196.367187073454,0,0.0320000015199184,0.976000046357513,0,0,0,0,0,1756478288.01963,0, 2025-08-29 11:38:08.019
45,4826.31658346811,558.843900628854,130.260715456679,-164.211527254432,0,0.0320000015199184,0.976000046357513,0,0,0,0,0,1756478288.01963,0, 2025-08-29 11:38:08.019
46,5016.66627151286,529.478206176777,145.283893578686,-154.988933963701,0,0.0320000015199184,0.976000046357513,0,0,0,0,0,1756478288.03314,0, 2025-08-29 11:38:08.033
46,5137.1060096859,444.107509888243,74.0238398229703,-190.364647644572,0,0.0320000015199184,0.976000046357513,0,0,0,0,0,1756478288.03314,0, 2025-08-29 11:38:08.033
47,5350.04656341299,520.543585182633,97.413174145855,-183.083062430844,0,0.0320000015199184,0.976000046357513,0,0,0,0,0,1756478288.04891,0, 2025-08-29 11:38:08.048
47,5421.49735206645,565.022215355653,155.157229461707,-144.075905892998,0,0.0320000015199184,0.976000046357513,0,0,0,0,0,1756478288.04891,0, 2025-08-29 11:38:08.048
48,5628.01088771969,473.772396336775,103.224978676997,-178.864455280826,0,0.0320000015199184,0.976000046357513,0,0,0,0,0,1756478288.04968,0, 2025-08-29 11:38:08.049
48,5458.70561672561,515.382523243781,92.2857713066042,-182.54825673718,0,0.0320000015199184,0.976000046357513,0,0,0,0,0,1756478288.04968,0, 2025-08-29 11:38:08.049
49,5359.88250029646,589.567178764846,162.457514175214,-132.190503833815,0,0.0320000015199184,0.976000046357513,0,0,0,0,0,1756478288.06319,0, 2025-08-29 11:38:08.063
49,5597.15297318529,511.68750208756,134.969249500893,-159.278599212877,0,0.0320000015199184,0.976000046357513,0,0,0,0,0,1756478288.06319,0, 2025-08-29 11:38:08.063
50,5563.59111098293,473.136613344308,77.4795073820278,-198.382993149571,0,0.0320000015199184,0.976000046357513,0,0,0,0,0,1756478288.07893,0, 2025-08-29 11:38:08.078
50,5802.84560079826,562.299568187911,135.279661197215,-156.327818147838,0,0.0320000015199184,0.976000046357513,0,0,0,0,0,1756478288.07893,0, 2025-08-29 11:38:08.078
51,6009.93882094463,537.029064187314,155.220807760954,-140.167710439302,0,0.0320000015199184,0.976000046357513,0,0,0,0,0,1756478288.07966,0, 2025-08-29 11:38:08.079
51,6121.87028671848,456.531457541045,89.3050710419193,-182.4958981378,0,0.0320000015199184,0.976000046357513,0,0,0,0,0,1756478288.07966,0, 2025-08-29 11:38:08.079
52,6337.76536141057,530.476759464946,111.389180280268,-168.920061298646,0,0.0320000015199184,0.976000046357513,0,0,0,0,0,1756478288.09318,0, 2025-08-29 11:38:08.093
52,6417.28311426845,565.740276147146,159.854543806054,-139.042000552639,0,0.0320000015199184,0.976000046357513,0,0,0,0,0,1756478288.09318,0, 2025-08-29 11:38:08.093
53,6614.37210203335,472.897259747144,102.768710882403,-175.449926621281,0,0.0320000015199184,0.976000046357513,0,0,0,0,0,1756478288.10897,0, 2025-08-29 11:38:08.108
53,6441.55132508092,503.418583285529,93.8041706886142,-178.389487986453,0,0.0320000015199184,0.976000046357513,0,0,0,0,0,1756478288.10897,0, 2025-08-29 11:38:08.108
54,6343.80155993905,581.279560463037,153.261100184172,-137.127171775326,0,0.0320000015199184,0.976000046357513,0,0,0,0,0,1756478288.10963,0, 2025-08-29 11:38:08.109
54,6565.45795051288,500.725855317432,134.800954002887,-153.751027078368,0,0.0320000015199184,0.976000046357513,0,0,0,0,0,1756478288.10963,0, 2025-08-29 11:38:08.109
55,6544.08816216607,469.437852288131,75.9311888003722,-184.190072817728,0,0.0320000015199184,0.976000046357513,0,0,0,0,0,1756478288.12323,0, 2025-08-29 11:38:08.123
55,6312.61827410851,567.744862523396,138.249141762033,-150.444955517538,0,0.0320000015199184,0.976000046357513,0,0,0,0,0,1756478288.12323,0, 2025-08-29 11:38:08.123
56,6503.22975515015,543.648687108886,152.587918192148,-140.803493431769,0,0.0320000015199184,0.976000046357513,0,0,0,0,0,1756478288.1389,0, 2025-08-29 11:38:08.138
56,6606.60058992542,466.718945020344,81.0997305391356,-195.637906582095,0,0.0320000015199184,0.976000046357513,0,0,0,0,0,1756478288.1389,0, 2025-08-29 11:38:08.138
57,6842.80706127686,551.076128420886,122.713597346097,-170.659114778042,0,0.0320000015199184,0.976000046357513,0,0,0,0,0,1756478288.13962,0, 2025-08-29 11:38:08.139
57,6917.33952749381,592.891949825455,176.111888913438,-120.237783575431,0,0.0320000015199184,0.976000046357513,0,0,0,0,0,1756478288.13962,0, 2025-08-29 11:38:08.139
58,7121.5193655747,507.278160039801,121.438291461207,-159.734867007472,0,0.0320000015199184,0.976000046357513,0,0,0,0,0,1756478288.15326,0, 2025-08-29 11:38:08.153
58,6941.74611460464,512.925408972893,88.1008232561871,-181.848895445466,0,0.0320000015199184,0.976000046357513,0,0,0,0,0,1756478288.15326,0, 2025-08-29 11:38:08.153
59,6842.73974307766,600.23711333843,181.033597255126,-117.997583501972,0,0.0320000015199184,0.976000046357513,0,0,0,0,0,1756478288.16891,0, 2025-08-29 11:38:08.168
59,7073.90669923881,513.243300469127,149.992427622899,-130.515028653666,0,0.0320000015199184,0.976000046357513,0,0,0,0,0,1756478288.16891,0, 2025-08-29 11:38:08.168
60,7056.55356344441,486.746109283064,75.415082606487,-178.258591488004,0,0.0320000015199184,0.976000046357513,0,0,0,0,0,1756478288.16961,0, 2025-08-29 11:38:08.169
60,7294.7646211721,585.864677808713,140.201369538903,-145.556906275451,0,0.0320000015199184,0.976000046357513,0,0,0,0,0,1756478288.16961,0, 2025-08-29 11:38:08.169
61,7495.96001908835,554.524316180032,186.759384087287,-100.304116811603,0,0.0320000015199184,0.976000046357513,0,0,0,0,0,1756478288.18323,0, 2025-08-29 11:38:08.183
61,7622.06944559421,480.971703751478,113.128233759664,-170.722693077289,0,0.0320000015199184,0.976000046357513,0,0,0,0,0,1756478288.18323,0, 2025-08-29 11:38:08.183
62,7834.69958762499,554.81228847662,125.847633508965,-150.306579219177,0,0.0320000015199184,0.976000046357513,0,0,0,0,0,1756478288.19893,0, 2025-08-29 11:38:08.198
62,7902.6086910204,593.187401921954,186.475151690654,-101.515844397247,0,0.0320000015199184,0.976000046357513,0,0,0,0,0,1756478288.19893,0, 2025-08-29 11:38:08.198
63,8122.18195731891,495.938783374149,138.06962656416,-127.130419193767,0,0.0320000015199184,0.976000046357513,0,0,0,0,0,1756478288.19964,0, 2025-08-29 11:38:08.199
63,7938.31725579733,512.846871073823,114.186625447124,-149.233227931894,0,0.0320000015199184,0.976000046357513,0,0,0,0,0,1756478288.19964,0, 2025-08-29 11:38:08.199
64,7830.24910667772,599.085224152077,183.314936228097,-115.802262227982,0,0.0320000015199184,0.976000046357513,0,0,0,0,0,1756478288.2132,0, 2025-08-29 11:38:08.213
64,8068.43211515574,523.344770249445,156.952381440438,-132.504655430093,0,0.0320000015199184,0.976000046357513,0,0,0,0,0,1756478288.2132,0, 2025-08-29 11:38:08.213
65,8043.09429295594,487.897998469416,91.6163292145357,-168.460053604096,0,0.0320000015199184,0.976000046357513,0,0,0,0,0,1756478288.22887,0, 2025-08-29 11:38:08.228
65,8286.40283432324,591.560545441229,165.225040142424,-119.28410908673,0,0.0320000015199184,0.976000046357513,0,0,0,0,0,1756478288.22887,0, 2025-08-29 11:38:08.228
66,8494.5768855568,578.979521990288,177.525571096689,-112.604647765867,0,0.0320000015199184,0.976000046357513,0,0,0,0,0,1756478288.22958,0, 2025-08-29 11:38:08.229
66,8607.55178341828,490.067140443716,113.102054459974,-158.347364123911,0,0.0320000015199184,0.976000046357513,0,0,0,0,0,1756478288.22958,0, 2025-08-29 11:38:08.229
67,8824.8119215942,563.937644368503,138.323939761147,-139.195336450823,0,0.0320000015199184,0.976000046357513,0,0,0,0,0,1756478288.24321,0, 2025-08-29 11:38:08.243
67,8900.41399919847,603.430987900589,198.637306346558,-100.80152350571,0,0.0320000015199184,0.976000046357513,0,0,0,0,0,1756478288.24321,0, 2025-08-29 11:38:08.243
68,9105.98134016292,506.238467852119,140.440723136067,-134.430703907274,0,0.0320000015199184,0.976000046357513,0,0,0,0,0,1756478288.25885,0, 2025-08-29 11:38:08.258
68,8928.16031696973,531.684747150633,124.164678528905,-160.983993592672,0,0.0320000015199184,0.976000046357513,0,0,0,0,0,1756478288.25885,0, 2025-08-29 11:38:08.258
69,8823.19628481334,607.600976351183,194.702931593172,-104.829395757988,0,0.0320000015199184,0.976000046357513,0,0,0,0,0,1756478288.25959,0, 2025-08-29 11:38:08.259
69,9065.26130944537,546.89866017038,173.415421045385,-115.895759726875,0,0.0320000015199184,0.976000046357513,0,0,0,0,0,1756478288.25959,0, 2025-08-29 11:38:08.259
70,9034.50437220978,504.488194672857,112.851481162943,-156.978560740128,0,0.0320000015199184,0.976000046357513,0,0,0,0,0,1756478288.27322,0, 2025-08-29 11:38:08.273
70,8790.03459190624,583.815212632995,179.503978173248,-123.042708542198,0,0.0320000015199184,0.976000046357513,0,0,0,0,0,1756478288.27322,0, 2025-08-29 11:38:08.273
71,8996.9856958543,579.630264582578,209.987902712077,-103.651327271946,0,0.0320000015199184,0.976000046357513,0,0,0,0,0,1756478288.28886,0, 2025-08-29 11:38:08.288
71,9116.43436053908,506.073912254069,131.158291446045,-136.887818178162,0,0.0320000015199184,0.976000046357513,0,0,0,0,0,1756478288.28886,0, 2025-08-29 11:38:08.288
72,9330.97933134716,565.512142249849,155.826671553776,-125.806494609453,0,0.0320000015199184,0.976000046357513,0,0,0,0,0,1756478288.28959,0, 2025-08-29 11:38:08.289
72,9394.90918118972,601.250626226421,208.450803830288,-90.2325662309304,0,0.0320000015199184,0.976000046357513,0,0,0,0,0,1756478288.28959,0, 2025-08-29 11:38:08.289
73,9599.18999656942,501.25692111114,149.947548823431,-130.687064051628,0,0.0320000015199184,0.976000046357513,0,0,0,0,0,1756478288.3032,0, 2025-08-29 11:38:08.303
73,9426.31686101761,522.376136160921,129.475336465985,-150.463655017316,0,0.0320000015199184,0.976000046357513,0,0,0,0,0,1756478288.3032,0, 2025-08-29 11:38:08.303
74,9305.57419094816,609.287671231199,193.188272111118,-95.7638782653958,0,0.0320000015199184,0.976000046357513,0,0,0,0,0,1756478288.31885,0, 2025-08-29 11:38:08.318
74,9547.2839250844,530.596436263528,175.191873524338,-96.5941360555589,0,0.0320000015199184,0.976000046357513,0,0,0,0,0,1756478288.31885,0, 2025-08-29 11:38:08.318
75,9535.21152802743,497.490841855761,109.781023299322,-149.655836626887,0,0.0320000015199184,0.976000046357513,0,0,0,0,0,1756478288.31958,0, 2025-08-29 11:38:08.319
75,9764.51414406067,594.391649707686,170.790011276491,-119.904932479374,0,0.0320000015199184,0.976000046357513,0,0,0,0,0,1756478288.31958,0, 2025-08-29 11:38:08.319
76,9968.83235843992,579.936936378945,190.67879924085,-100.644447707571,0,0.0320000015199184,0.976000046357513,0,0,0,0,0,1756478288.33318,0, 2025-08-29 11:38:08.333
76,10103.2406229475,495.841545975301,119.579561183229,-139.038260652684,0,0.0320000015199184,0.976000046357513,0,0,0,0,0,1756478288.33318,0, 2025-08-29 11:38:08.333
77,10305.4401840018,575.501415031496,115.132820135914,-135.455436495133,0,0.0320000015199184,0.976000046357513,0,0,0,0,0,1756478288.34886,0, 2025-08-29 11:38:08.348
77,10354.885401316,613.760591578204,171.197660371661,-116.011696625501,0,0.0320000015199184,0.976000046357513,0,0,0,0,0,1756478288.34886,0, 2025-08-29 11:38:08.348
78,10593.8126498852,509.140630217735,175.984732314944,-107.421146427281,0,0.0320000015199184,0.976000046357513,0,0,0,0,0,1756478288.34958,0, 2025-08-29 11:38:08.349
78,10404.1810226319,528.625508986879,134.13899171073,-135.806987090968,0,0.0320000015199184,0.976000046357513,0,0,0,0,0,1756478288.34958,0, 2025-08-29 11:38:08.349
79,10287.8364749104,618.521484221798,200.290342126973,-83.3399306125939,0,0.0320000015199184,0.976000046357513,0,0,0,0,0,1756478288.36318,0, 2025-08-29 11:38:08.363
79,10050.7324275696,551.4800376161,185.132527606562,-95.3113503707573,0,0.0320000015199184,0.976000046357513,0,0,0,0,0,1756478288.36318,0, 2025-08-29 11:38:08.363
80,10026.5689339559,511.421969190706,116.864393815398,-151.200415308587,0,0.0320000015199184,0.992000047117472,0,0,0,0,0,1756478288.37885,0, 2025-08-29 11:38:08.378
80,10248.0925580813,598.782292255666,166.444247527979,-123.513935936615,0,0.0320000015199184,0.992000047117472,0,0,0,0,0,1756478288.37885,0, 2025-08-29 11:38:08.378
81,10460.9078251598,586.732334598433,192.298175921664,-94.3614157820121,0,0.0320000015199184,0.992000047117472,0,0,0,0,0,1756478288.37958,0, 2025-08-29 11:38:08.379
81,10581.927247826,501.38781760959,130.159738157876,-142.957675806247,0,0.0320000015199184,0.992000047117472,0,0,0,0,0,1756478288.37958,0, 2025-08-29 11:38:08.379
82,10786.5016453522,568.545201113913,147.165063256398,-122.949211043306,0,0.0320000015199184,0.992000047117472,0,0,0,0,0,1756478288.39321,0, 2025-08-29 11:38:08.393
82,10865.013365122,611.793404201511,210.294574508443,-90.8272103238851,0,0.0320000015199184,0.992000047117472,0,0,0,0,0,1756478288.39321,0, 2025-08-29 11:38:08.393
83,11076.3812909178,521.373842972796,164.839830446988,-120.088187577203,0,0.0320000015199184,0.992000047117472,0,0,0,0,0,1756478288.40904,0, 2025-08-29 11:38:08.409
83,10896.5968202478,523.868356243242,131.363985943608,-141.521554223262,0,0.0320000015199184,0.992000047117472,0,0,0,0,0,1756478288.40904,0, 2025-08-29 11:38:08.409
84,10784.1043694806,604.066770893056,203.768449085765,-101.91227379255,0,0.0320000015199184,0.992000047117472,0,0,0,0,0,1756478288.40966,0, 2025-08-29 11:38:08.409
84,11025.3279166226,542.018090728205,189.912119749933,-105.84290864598,0,0.0320000015199184,0.992000047117472,0,0,0,0,0,1756478288.40966,0, 2025-08-29 11:38:08.409
85,11001.9423221997,497.905970750842,115.039322637022,-144.113304892555,0,0.0320000015199184,0.992000047117472,0,0,0,0,0,1756478288.42318,0, 2025-08-29 11:38:08.423
85,11235.8225757787,590.906062948983,176.818730005063,-114.661592741497,0,0.0320000015199184,0.992000047117472,0,0,0,0,0,1756478288.42318,0, 2025-08-29 11:38:08.423
86,11431.6250379588,571.29028768139,202.698837698437,-100.861361905001,0,0.0320000015199184,0.992000047117472,0,0,0,0,0,1756478288.43893,0, 2025-08-29 11:38:08.438
86,11545.7518250067,477.085947697517,125.185671216808,-161.773112483323,0,0.0320000015199184,0.992000047117472,0,0,0,0,0,1756478288.43893,0, 2025-08-29 11:38:08.438
87,11764.5602817643,551.300522418227,140.373404936865,-139.864778542891,0,0.0320000015199184,0.992000047117472,0,0,0,0,0,1756478288.43962,0, 2025-08-29 11:38:08.439
87,11811.0547180134,584.043346530292,176.283924311399,-107.174313030206,0,0.0320000015199184,0.992000047117472,0,0,0,0,0,1756478288.43962,0, 2025-08-29 11:38:08.439
88,12017.874925463,486.106586390641,121.232596963644,-168.306717705913,0,0.0320000015199184,0.992000047117472,0,0,0,0,0,1756478288.45319,0, 2025-08-29 11:38:08.453
88,11876.8657375337,536.348402395379,122.653758946806,-150.796506113373,0,0.0320000015199184,0.992000047117472,0,0,0,0,0,1756478288.45319,0, 2025-08-29 11:38:08.453
89,11752.9927712013,618.31952962419,190.850834638812,-113.236690858379,0,0.0320000015199184,0.992000047117472,0,0,0,0,0,1756478288.46888,0, 2025-08-29 11:38:08.468
89,11990.3492617891,535.218952608761,160.901715793647,-138.028487664647,0,0.0320000015199184,0.992000047117472,0,0,0,0,0,1756478288.46888,0, 2025-08-29 11:38:08.468
90,11973.9460605835,487.093919978943,99.5748363202438,-177.611588795669,0,0.0320000015199184,0.976000046357513,0,0,0,0,0,1756478288.46962,0, 2025-08-29 11:38:08.469
90,12198.667299171,583.493581236806,144.072165993042,-144.36013828963,0,0.0320000015199184,0.976000046357513,0,0,0,0,0,1756478288.46962,0, 2025-08-29 11:38:08.469
91,12390.0454597035,557.332981046755,166.485386427492,-125.724216810428,0,0.0320000015199184,0.976000046357513,0,0,0,0,0,1756478288.48319,0, 2025-08-29 11:38:08.483
91,12522.5239358339,473.245070443023,92.9065946992487,-173.647294842638,0,0.0320000015199184,0.976000046357513,0,0,0,0,0,1756478288.48319,0, 2025-08-29 11:38:08.483
92,12732.5324079958,534.130641721655,108.146687018685,-166.201154030859,0,0.0320000015199184,0.976000046357513,0,0,0,0,0,1756478288.49888,0, 2025-08-29 11:38:08.498
92,12784.842388676,578.863585091662,168.063624208793,-122.279768951237,0,0.0320000015199184,0.976000046357513,0,0,0,0,0,1756478288.49888,0, 2025-08-29 11:38:08.498
93,13006.4539004504,483.873866117094,113.117014059797,-164.319984353147,0,0.0320000015199184,0.976000046357513,0,0,0,0,0,1756478288.49961,0, 2025-08-29 11:38:08.499
93,12836.5390257635,505.75228085788,81.4587609348819,-180.644647659734,0,0.0320000015199184,0.976000046357513,0,0,0,0,0,1756478288.49961,0, 2025-08-29 11:38:08.499
94,12703.9371329346,586.549079500604,162.079784279689,-129.946563860402,0,0.0320000015199184,0.976000046357513,0,0,0,0,0,1756478288.5132,0, 2025-08-29 11:38:08.513
94,12462.0160944508,521.299044973683,142.628564610146,-150.594551515765,0,0.0320000015199184,0.976000046357513,0,0,0,0,0,1756478288.5132,0, 2025-08-29 11:38:08.513
95,12450.4485838879,464.781676843297,86.8180375713855,-191.325801933184,0,0.0320000015199184,0.976000046357513,0,0,0,0,0,1756478288.52893,0, 2025-08-29 11:38:08.528
95,12685.3647897546,570.104739395436,150.545932816342,-149.349164830521,0,0.0320000015199184,0.976000046357513,0,0,0,0,0,1756478288.52893,0, 2025-08-29 11:38:08.528
96,12880.9391180375,558.03982213838,168.931280998513,-137.239368773997,0,0.0320000015199184,0.976000046357513,0,0,0,0,0,1756478288.52959,0, 2025-08-29 11:38:08.529
96,13000.4812802211,481.959037339781,101.384947898798,-193.098514512181,0,0.0320000015199184,0.976000046357513,0,0,0,0,0,1756478288.52959,0, 2025-08-29 11:38:08.529
97,13220.2658508671,538.52502416959,118.143439600244,-155.36292395927,0,0.0320000015199184,0.976000046357513,0,0,0,0,0,1756478288.54324,0, 2025-08-29 11:38:08.543
97,13289.8579092426,579.99303487828,180.236998564564,-116.325848221779,0,0.0320000015199184,0.976000046357513,0,0,0,0,0,1756478288.54324,0, 2025-08-29 11:38:08.543
98,13485.3761390261,482.71449713083,113.419945956208,-164.338683852926,0,0.0320000015199184,0.976000046357513,0,0,0,0,0,1756478288.55905,0, 2025-08-29 11:38:08.559
98,13319.5414951909,497.027094261255,91.0703038210049,-176.414820809849,0,0.0320000015199184,0.976000046357513,0,0,0,0,0,1756478288.55905,0, 2025-08-29 11:38:08.559
99,13194.2174476758,580.482961772475,154.110057474114,-136.584886281751,0,0.0320000015199184,0.976000046357513,0,0,0,0,0,1756478288.55957,0, 2025-08-29 11:38:08.559
99,13423.4658351596,515.812611738686,132.680430728011,-162.236860077828,0,0.0320000015199184,0.976000046357513,0,0,0,0,0,1756478288.55957,0, 2025-08-29 11:38:08.559
100,13420.2233418981,475.74706351338,80.2208540495485,-181.863855045289,0,0.0320000015199184,0.976000046357513,0,0,0,0,0,1756478288.57386,0, 2025-08-29 11:38:08.573
100,13650.5282511194,566.215243441518,137.590919369832,-152.988087487407,0,0.0320000015199184,0.976000046357513,0,0,0,0,0,1756478288.57386,0, 2025-08-29 11:38:08.573
0,108.941415759269,550.88165362319,150.338368368801,-140.95869927993,0,0.0320000015199184,0.976000046357513,0,0,0,0,0,1756478288.57459,0, 2025-08-29 11:38:08.574
1,226.344355168287,477.471157392953,56.6987532782368,-204.065771132242,0,0.0320000015199184,0.976000046357513,0,0,0,0,0,1756478288.58816,0, 2025-08-29 11:38:08.588
1,468.014820354991,536.905647488777,114.644763191696,-164.041361806449,0,0.0320000015199184,0.976000046357513,0,0,0,0,0,1756478288.58816,0, 2025-08-29 11:38:08.588
2,523.567294296809,567.314774028491,189.513820404653,-112.191388820764,0,0.0320000015199184,0.976000046357513,0,0,0,0,0,1756478288.60392,0, 2025-08-29 11:38:08.603
2,725.836043500341,477.613273591269,116.409995970782,-159.052335265558,0,0.0320000015199184,0.976000046357513,0,0,0,0,0,1756478288.60392,0, 2025-08-29 11:38:08.603
3,584.69595907256,498.968102338258,90.1334588821046,-175.721069368068,0,0.0320000015199184,0.976000046357513,0,0,0,0,0,1756478288.60466,0, 2025-08-29 11:38:08.604
3,448.488802686334,575.968902525958,165.900092084426,-135.326409946661,0,0.0320000015199184,0.976000046357513,0,0,0,0,0,1756478288.60466,0, 2025-08-29 11:38:08.604
4,682.064254418947,506.788233145606,141.373828175012,-150.267310269643,0,0.0320000015199184,0.976000046357513,0,0,0,0,0,1756478288.61818,0, 2025-08-29 11:38:08.618
4,691.600999305956,470.039976180997,95.2159829218872,-180.193989715073,0,0.0320000015199184,0.976000046357513,0,0,0,0,0,1756478288.61818,0, 2025-08-29 11:38:08.618
5,917.87803627504,562.912911780644,157.604993982706,-148.805009386968,0,0.0320000015199184,0.976000046357513,0,0,0,0,0,1756478288.63391,0, 2025-08-29 11:38:08.633
5,1105.65467315028,558.140799437184,171.244409121107,-119.775905930903,0,0.0320000015199184,0.976000046357513,0,0,0,0,0,1756478288.63391,0, 2025-08-29 11:38:08.633
6,1246.01685838727,487.718483271543,102.433989836369,-176.835559554864,0,0.0320000015199184,0.976000046357513,0,0,0,0,0,1756478288.63464,0, 2025-08-29 11:38:08.634
6,1460.39727359731,538.188433173578,125.337137165014,-166.745309474412,0,0.0320000015199184,0.976000046357513,0,0,0,0,0,1756478288.63464,0, 2025-08-29 11:38:08.634
7,1498.14408385009,587.162423093338,182.681023185607,-121.488780110609,0,0.0320000015199184,0.976000046357513,0,0,0,0,0,1756478288.6482,0, 2025-08-29 11:38:08.648
7,1720.13332551997,485.590480196755,126.649842049461,-155.869680403266,0,0.0320000015199184,0.976000046357513,0,0,0,0,0,1756478288.6482,0, 2025-08-29 11:38:08.648
8,1555.81708106678,510.079345106613,96.8914581020363,-167.392312166747,0,0.0320000015199184,0.976000046357513,0,0,0,0,0,1756478288.66396,0, 2025-08-29 11:38:08.663
8,1422.6616830444,598.860830154736,178.529734234791,-117.718960955273,0,0.0320000015199184,0.976000046357513,0,0,0,0,0,1756478288.66396,0, 2025-08-29 11:38:08.663
9,1185.15372650838,532.799237337429,166.479776577558,-127.655875137541,0,0.0320000015199184,0.976000046357513,0,0,0,0,0,1756478288.66461,0, 2025-08-29 11:38:08.664
9,1174.11728173913,495.650811077561,104.333859013859,-164.359253302682,0,0.0320000015199184,0.976000046357513,0,0,0,0,0,1756478288.66461,0, 2025-08-29 11:38:08.664
10,1409.31398010254,583.893750532065,159.766656157095,-129.858676211443,0,0.0320000015199184,0.976000046357513,0,0,0,0,0,1756478288.67819,0, 2025-08-29 11:38:08.678
10,1615.25531106256,571.279067981523,173.465909694787,-114.685902091209,0,0.0320000015199184,0.976000046357513,0,0,0,0,0,1756478288.67819,0, 2025-08-29 11:38:08.678
11,1721.6330254022,490.254135441501,118.156529250089,-158.151019376237,0,0.0320000015199184,0.976000046357513,0,0,0,0,0,1756478288.69391,0, 2025-08-29 11:38:08.693
11,1951.75093962578,556.57378135575,140.270557688084,-149.429572679568,0,0.0320000015199184,0.976000046357513,0,0,0,0,0,1756478288.69391,0, 2025-08-29 11:38:08.693
12,2019.95175521774,609.994512322824,202.341677252669,-102.587325734552,0,0.0320000015199184,0.976000046357513,0,0,0,0,0,1756478288.69464,0, 2025-08-29 11:38:08.694
12,2210.33884226205,505.198775664438,134.974859350827,-160.940984743182,0,0.0320000015199184,0.976000046357513,0,0,0,0,0,1756478288.69464,0, 2025-08-29 11:38:08.694
13,2055.86975439219,529.287471279036,109.139630456921,-166.812627673615,0,0.0320000015199184,0.976000046357513,0,0,0,0,0,1756478288.70818,0, 2025-08-29 11:38:08.708
13,1939.44666877156,611.13518180931,173.581846593414,-121.006333016325,0,0.0320000015199184,0.976000046357513,0,0,0,0,0,1756478288.70818,0, 2025-08-29 11:38:08.708
14,2180.46826131595,548.940645546187,173.391111695673,-112.075451922137,0,0.0320000015199184,0.976000046357513,0,0,0,0,0,1756478288.72395,0, 2025-08-29 11:38:08.723
14,2170.92777652899,504.701368970331,113.074005210307,-146.011304120068,0,0.0320000015199184,0.976000046357513,0,0,0,0,0,1756478288.72395,0, 2025-08-29 11:38:08.723
15,2413.81370920129,588.430249178316,161.285055539105,-130.341123305727,0,0.0320000015199184,0.976000046357513,0,0,0,0,0,1756478288.72465,0, 2025-08-29 11:38:08.724
15,2588.3922391329,580.292226874735,190.415136293974,-116.712927867193,0,0.0320000015199184,0.976000046357513,0,0,0,0,0,1756478288.72465,0, 2025-08-29 11:38:08.724
16,2709.34434359986,491.794974223245,112.692535414826,-164.512589200865,0,0.0320000015199184,0.976000046357513,0,0,0,0,0,1756478288.73817,0, 2025-08-29 11:38:08.738
16,2944.75421626074,559.363746722694,129.020938621368,-171.072373723146,0,0.0320000015199184,0.976000046357513,0,0,0,0,0,1756478288.73817,0, 2025-08-29 11:38:08.738
17,2992.31826389721,606.486486164387,193.227541060653,-103.425063324627,0,0.0320000015199184,0.976000046357513,0,0,0,0,0,1756478288.75388,0, 2025-08-29 11:38:08.753
17,3196.74867527513,515.969687536825,149.968118273187,-127.315544241574,0,0.0320000015199184,0.976000046357513,0,0,0,0,0,1756478288.75388,0, 2025-08-29 11:38:08.753
18,3056.45380823733,538.850395465735,125.640069061425,-149.216398382094,0,0.0320000015199184,0.976000046357513,0,0,0,0,0,1756478288.75461,0, 2025-08-29 11:38:08.754
18,2920.04843715345,624.830695447046,195.063831938896,-103.245548126753,0,0.0320000015199184,0.976000046357513,0,0,0,0,0,1756478288.75461,0, 2025-08-29 11:38:08.754
19,3152.46077999985,550.862954123411,167.994436059613,-131.967979786452,0,0.0320000015199184,0.976000046357513,0,0,0,0,0,1756478288.76813,0, 2025-08-29 11:38:08.768
19,3156.89256144734,512.132550182287,106.80593288457,-163.798268309329,0,0.0320000015199184,0.976000046357513,0,0,0,0,0,1756478288.76813,0, 2025-08-29 11:38:08.768
20,3383.61464651115,599.537752046716,160.634312946815,-126.167394955177,0,0.0320000015199184,0.976000046357513,0,0,0,0,0,1756478288.78391,0, 2025-08-29 11:38:08.783
20,3559.84247232322,586.234927904327,184.521053963806,-110.527133340482,0,0.0320000015199184,0.976000046357513,0,0,0,0,0,1756478288.78391,0, 2025-08-29 11:38:08.783
21,3710.55296073761,505.337151962798,127.382862440776,-156.456844696309,0,0.0320000015199184,0.976000046357513,0,0,0,0,0,1756478288.78465,0, 2025-08-29 11:38:08.784
21,3921.86665798398,560.523115708958,130.053151009139,-157.945324878674,0,0.0320000015199184,0.976000046357513,0,0,0,0,0,1756478288.78465,0, 2025-08-29 11:38:08.784
22,3973.39873947343,617.657567332033,201.739553359803,-98.3238397850655,0,0.0320000015199184,0.976000046357513,0,0,0,0,0,1756478288.79818,0, 2025-08-29 11:38:08.798
22,4189.73325241031,516.743846827652,144.02167734364,-131.1452017962,0,0.0320000015199184,0.976000046357513,0,0,0,0,0,1756478288.79818,0, 2025-08-29 11:38:08.798
23,4036.07572283084,542.111588227097,122.60701019736,-152.948818537872,0,0.0320000015199184,0.976000046357513,0,0,0,0,0,1756478288.81392,0, 2025-08-29 11:38:08.813
23,3894.50554990815,634.737690429669,183.040053581353,-114.465247993823,0,0.0320000015199184,0.976000046357513,0,0,0,0,0,1756478288.81392,0, 2025-08-29 11:38:08.813
24,3652.47979422566,540.372534747701,179.139337927569,-110.527133340482,0,0.0320000015199184,0.976000046357513,0,0,0,0,0,1756478288.81465,0, 2025-08-29 11:38:08.814
24,3644.25575422309,496.196836471092,117.786279154476,-139.335582699161,0,0.0320000015199184,0.976000046357513,0,0,0,0,0,1756478288.81465,0, 2025-08-29 11:38:08.814
25,3862.97445338173,602.151942115743,156.202531499323,-125.109003267717,0,0.0320000015199184,0.976000046357513,0,0,0,0,0,1756478288.82823,0, 2025-08-29 11:38:08.828
25,4057.28469547955,574.46546274377,191.578245180193,-104.270280714612,0,0.0320000015199184,0.976000046357513,0,0,0,0,0,1756478288.82823,0, 2025-08-29 11:38:08.828
26,4194.57642285293,494.521361290943,115.762993278448,-155.114220612217,0,0.0320000015199184,0.976000046357513,0,0,0,0,0,1756478288.84391,0, 2025-08-29 11:38:08.843
26,4412.22925052419,554.412119181361,133.086209873203,-149.605347977486,0,0.0320000015199184,0.976000046357513,0,0,0,0,0,1756478288.84391,0, 2025-08-29 11:38:08.843
27,4460.17476795614,616.236405348871,194.499107045587,-101.656090645585,0,0.0320000015199184,0.976000046357513,0,0,0,0,0,1756478288.84464,0, 2025-08-29 11:38:08.844
27,4677.81824587751,528.363715989981,142.536937061232,-141.224232176784,0,0.0320000015199184,0.976000046357513,0,0,0,0,0,1756478288.84464,0, 2025-08-29 11:38:08.844
28,4517.31295947917,536.333442795556,111.376090630423,-153.655659629498,0,0.0320000015199184,0.976000046357513,0,0,0,0,0,1756478288.87457,0, 2025-08-29 11:38:08.874
28,4379.13861571625,611.026724710595,186.005794246215,-114.308172195684,0,0.0320000015199184,0.976000046357513,0,0,0,0,0,1756478288.87457,0, 2025-08-29 11:38:08.874
29,4138.14507242152,544.351788300555,166.341400279198,-124.918268369976,0,0.0320000015199184,0.976000046357513,0,0,0,0,0,1756478288.8753,0, 2025-08-29 11:38:08.875
29,4134.43883156544,502.476128496695,107.48285477655,-161.576767735649,0,0.0320000015199184,0.976000046357513,0,0,0,0,0,1756478288.8753,0, 2025-08-29 11:38:08.875
30,4357.53321367223,593.950341512915,159.381446461659,-143.266217552591,0,0.0320000015199184,0.976000046357513,0,0,0,0,0,1756478288.8761,0, 2025-08-29 11:38:08.876
30,4542.68444077857,592.390803231392,194.831958141644,-113.474174505565,0,0.0320000015199184,0.976000046357513,0,0,0,0,0,1756478288.8761,0, 2025-08-29 11:38:08.876
31,4694.53185877949,508.366470926907,133.478899368551,-139.799330293667,0,0.0320000015199184,0.976000046357513,0,0,0,0,0,1756478288.88824,0, 2025-08-29 11:38:08.888
31,4910.78596386733,558.080961037893,143.064262954984,-133.168487672228,0,0.0320000015199184,0.976000046357513,0,0,0,0,0,1756478288.88824,0, 2025-08-29 11:38:08.888
32,4953.27870716387,616.546817045193,204.600576825906,-89.5537743889727,0,0.0320000015199184,0.976000046357513,0,0,0,0,0,1756478288.90386,0, 2025-08-29 11:38:08.903
32,5165.24501695251,512.353204279672,147.641900500748,-127.506279139314,0,0.0320000015199184,0.976000046357513,0,0,0,0,0,1756478288.90386,0, 2025-08-29 11:38:08.903
33,5019.30664088158,518.434281607624,123.904755481984,-146.116021318827,0,0.0320000015199184,0.976000046357513,0,0,0,0,0,1756478288.90461,0, 2025-08-29 11:38:08.904
33,4871.07196623785,604.545478087384,189.648456803057,-99.7263022684492,0,0.0320000015199184,0.976000046357513,0,0,0,0,0,1756478288.90461,0, 2025-08-29 11:38:08.904
34,5109.05676001823,538.779337366577,169.883085537236,-120.57624452142,0,0.0320000015199184,0.976000046357513,0,0,0,0,0,1756478288.91821,0, 2025-08-29 11:38:08.918
34,5121.00574037666,483.223123524804,100.582739358302,-172.717929703649,0,0.0320000015199184,0.976000046357513,0,0,0,0,0,1756478288.91821,0, 2025-08-29 11:38:08.918
35,5329.61922985502,580.531580471899,163.940384507645,-137.009364926722,0,0.0320000015199184,0.976000046357513,0,0,0,0,0,1756478288.93389,0, 2025-08-29 11:38:08.933
35,5509.10076862853,568.14877171861,186.510680740234,-134.107202561107,0,0.0320000015199184,0.976000046357513,0,0,0,0,0,1756478288.93389,0, 2025-08-29 11:38:08.933
36,5665.86615507118,483.952404016163,107.224801679607,-158.895259467419,0,0.0320000015199184,0.976000046357513,0,0,0,0,0,1756478288.93463,0, 2025-08-29 11:38:08.934
36,5868.80247641681,544.0525963041,118.994266840164,-159.355267161969,0,0.0320000015199184,0.976000046357513,0,0,0,0,0,1756478288.93463,0, 2025-08-29 11:38:08.934
37,5913.54663948668,598.311064861249,188.156236720737,-101.065186452586,0,0.0320000015199184,0.976000046357513,0,0,0,0,0,1756478288.94821,0, 2025-08-29 11:38:08.948
37,6141.61321858456,503.575659083668,138.785817405675,-128.714266825002,0,0.0320000015199184,0.976000046357513,0,0,0,0,0,1756478288.94821,0, 2025-08-29 11:38:08.948
38,5991.59461166197,516.639129628893,102.456429236103,-156.584001294803,0,0.0320000015199184,0.976000046357513,0,0,0,0,0,1756478288.96386,0, 2025-08-29 11:38:08.963
38,5832.45812864741,597.540645470377,164.493889701087,-136.119268737268,0,0.0320000015199184,0.976000046357513,0,0,0,0,0,1756478288.96386,0, 2025-08-29 11:38:08.963
39,5599.13512016181,535.338629407343,146.70318561187,-136.605455731507,0,0.0320000015199184,0.976000046357513,0,0,0,0,0,1756478288.9646,0, 2025-08-29 11:38:08.964
39,5600.51514324546,488.152311666403,85.6007001358084,-162.059214829933,0,0.0320000015199184,0.976000046357513,0,0,0,0,0,1756478288.9646,0, 2025-08-29 11:38:08.964
40,5805.81508136308,578.695289593656,136.418460733723,-128.243039430585,0,0.0320000015199184,0.976000046357513,0,0,0,0,0,1756478288.97818,0, 2025-08-29 11:38:08.978
40,6007.07031767862,566.263862140942,174.101692687254,-109.939969047438,0,0.0320000015199184,0.976000046357513,0,0,0,0,0,1756478288.97818,0, 2025-08-29 11:38:08.978
41,6142.43225667486,482.998729527462,96.8540591024794,-175.904324465897,0,0.0320000015199184,0.976000046357513,0,0,0,0,0,1756478288.99388,0, 2025-08-29 11:38:08.993
41,6366.37185617164,558.918698627967,119.944201428909,-149.62778737722,0,0.0320000015199184,0.976000046357513,0,0,0,0,0,1756478288.99388,0, 2025-08-29 11:38:08.993
42,6403.95411082637,589.380183767062,172.082146711182,-108.679622762371,0,0.0320000015199184,0.976000046357513,0,0,0,0,0,1756478288.99462,0, 2025-08-29 11:38:08.994
42,6634.04397580028,510.075605206657,142.226525364909,-133.96508636279,0,0.0320000015199184,0.976000046357513,0,0,0,0,0,1756478288.99462,0, 2025-08-29 11:38:08.994
43,6473.76682329923,500.273327422794,102.729441932868,-170.578706928995,0,0.0320000015199184,0.976000046357513,0,0,0,0,0,1756478289.00823,0, 2025-08-29 11:38:09.008
43,6324.81782776397,586.205008704681,173.088179799262,-114.96265468793,0,0.0320000015199184,0.976000046357513,0,0,0,0,0,1756478289.00823,0, 2025-08-29 11:38:09.008
44,6083.48769347323,531.868002248462,150.413166367915,-138.060276814271,0,0.0320000015199184,0.976000046357513,0,0,0,0,0,1756478289.02391,0, 2025-08-29 11:38:09.023
44,6086.53197203716,483.638252419885,90.900138373021,-169.669911239762,0,0.0320000015199184,0.976000046357513,0,0,0,0,0,1756478289.02391,0, 2025-08-29 11:38:09.023
45,6305.90515368804,573.149017959368,143.116621554364,-140.184539989103,0,0.0320000015199184,0.976000046357513,0,0,0,0,0,1756478289.02463,0, 2025-08-29 11:38:09.024
45,6492.36908567883,568.82569361059,179.22535562655,-110.594451539684,0,0.0320000015199184,0.976000046357513,0,0,0,0,0,1756478289.02463,0, 2025-08-29 11:38:09.024
46,6630.22179804556,480.982923451345,106.458122188691,-156.393266397063,0,0.0320000015199184,0.976000046357513,0,0,0,0,0,1756478289.03819,0, 2025-08-29 11:38:09.038
46,6857.08225940773,537.728425479028,119.472974034492,-138.714759306516,0,0.0320000015199184,0.976000046357513,0,0,0,0,0,1756478289.03819,0, 2025-08-29 11:38:09.038
47,6894.63085496286,584.417336525861,175.339599572588,-116.802685466129,0,0.0320000015199184,0.976000046357513,0,0,0,0,0,1756478289.05391,0, 2025-08-29 11:38:09.053
47,7112.08359798649,488.829233558383,123.246533089783,-146.804162910674,0,0.0320000015199184,0.976000046357513,0,0,0,0,0,1756478289.05391,0, 2025-08-29 11:38:09.053
48,6973.28095103102,500.789433616679,98.6454711812548,-168.944370648358,0,0.0320000015199184,0.976000046357513,0,0,0,0,0,1756478289.05462,0, 2025-08-29 11:38:09.054
48,6813.34412942594,590.91728264885,160.477237148676,-135.644301442895,0,0.0320000015199184,0.976000046357513,0,0,0,0,0,1756478289.05462,0, 2025-08-29 11:38:09.054
49,7052.95577968704,523.438267748337,135.341369546484,-145.738291423302,0,0.0320000015199184,0.976000046357513,0,0,0,0,0,1756478289.0682,0, 2025-08-29 11:38:09.068
49,7066.75975042349,477.886286288034,78.7305039172061,-189.338045106735,0,0.0320000015199184,0.976000046357513,0,0,0,0,0,1756478289.0682,0, 2025-08-29 11:38:09.068
50,7267.26139689796,558.840160728898,128.0560444328,-165.208210592624,0,0.0320000015199184,0.976000046357513,0,0,0,0,0,1756478289.08388,0, 2025-08-29 11:38:09.083
50,7457.65222384222,560.33986061113,167.609226364177,-135.393728145864,0,0.0320000015199184,0.976000046357513,0,0,0,0,0,1756478289.08388,0, 2025-08-29 11:38:09.083
51,7609.63053834159,466.468371723313,92.6242322525941,-186.514420640189,0,0.0320000015199184,0.976000046357513,0,0,0,0,0,1756478289.0846,0, 2025-08-29 11:38:09.084
51,7823.79403935419,534.953419711906,96.2257559099235,-180.25756801432,0,0.0320000015199184,0.976000046357513,0,0,0,0,0,1756478289.0846,0, 2025-08-29 11:38:09.084
52,7850.49318513786,572.165424271021,157.100107488688,-139.264524600003,0,0.0320000015199184,0.976000046357513,0,0,0,0,0,1756478289.09823,0, 2025-08-29 11:38:09.098
52,8089.80564340251,494.771934587974,109.853951348457,-171.839053214062,0,0.0320000015199184,0.976000046357513,0,0,0,0,0,1756478289.09823,0, 2025-08-29 11:38:09.098
53,7944.12906032847,496.45862946799,84.8975989441387,-172.190603809897,0,0.0320000015199184,0.976000046357513,0,0,0,0,0,1756478289.11391,0, 2025-08-29 11:38:09.113
53,7783.29466273403,588.856597773265,157.750850080978,-142.5818158607,0,0.0320000015199184,0.976000046357513,0,0,0,0,0,1756478289.11391,0, 2025-08-29 11:38:09.113
54,7551.80046532676,534.710326214787,140.405194086488,-139.470219097566,0,0.0320000015199184,0.976000046357513,0,0,0,0,0,1756478289.11463,0, 2025-08-29 11:38:09.114
54,7557.58235065825,474.266063130926,80.166625500191,-171.898891613353,0,0.0320000015199184,0.976000046357513,0,0,0,0,0,1756478289.11463,0, 2025-08-29 11:38:09.114
55,7768.75019180635,564.883839057293,133.763131765183,-141.818876269739,0,0.0320000015199184,0.976000046357513,0,0,0,0,0,1756478289.12821,0, 2025-08-29 11:38:09.128
55,7955.41607839474,563.627232672181,164.849180196878,-125.770965559874,0,0.0320000015199184,0.976000046357513,0,0,0,0,0,1756478289.12821,0, 2025-08-29 11:38:09.128
56,8100.87200737139,478.13311968511,92.3661791556515,-164.744462998118,0,0.0320000015199184,0.976000046357513,0,0,0,0,0,1756478289.14394,0, 2025-08-29 11:38:09.143
56,8324.65453107003,543.270957213361,113.388156806584,-167.209057068918,0,0.0320000015199184,0.976000046357513,0,0,0,0,0,1756478289.14394,0, 2025-08-29 11:38:09.143
57,8361.02879803907,588.789279574063,183.152250580024,-119.57021143334,0,0.0320000015199184,0.976000046357513,0,0,0,0,0,1756478289.14467,0, 2025-08-29 11:38:09.144
57,8585.92768187448,498.395897645038,125.69616756076,-149.107941283379,0,0.0320000015199184,0.976000046357513,0,0,0,0,0,1756478289.14467,0, 2025-08-29 11:38:09.144
58,8438.5083054211,503.527040384244,97.919930589851,-162.552881624084,0,0.0320000015199184,0.976000046357513,0,0,0,0,0,1756478289.15819,0, 2025-08-29 11:38:09.158
58,8283.63904825598,588.018860183191,162.657598822843,-121.193328014109,0,0.0320000015199184,0.976000046357513,0,0,0,0,0,1756478289.15819,0, 2025-08-29 11:38:09.158
59,8041.55719407415,534.669187315274,154.882346814964,-122.565871297847,0,0.0320000015199184,0.976000046357513,0,0,0,0,0,1756478289.17394,0, 2025-08-29 11:38:09.173
59,8057.65372348344,486.667571383994,102.617244934198,-186.084332145285,0,0.0320000015199184,0.976000046357513,0,0,0,0,0,1756478289.17394,0, 2025-08-29 11:38:09.173
60,8268.24562003836,586.934289196041,153.225571134593,-136.354882434476,0,0.0320000015199184,0.976000046357513,0,0,0,0,0,1756478289.17469,0, 2025-08-29 11:38:09.174
60,8448.69205300044,569.558714001905,176.566286758054,-119.854443829972,0,0.0320000015199184,0.976000046357513,0,0,0,0,0,1756478289.17469,0, 2025-08-29 11:38:09.174
61,8599.6755541116,486.072927291039,107.325778978411,-150.678699264769,0,0.0320000015199184,0.976000046357513,0,0,0,0,0,1756478289.18819,0, 2025-08-29 11:38:09.188
61,8827.82628095849,535.29749050783,110.358837842476,-148.558175989892,0,0.0320000015199184,0.976000046357513,0,0,0,0,0,1756478289.18819,0, 2025-08-29 11:38:09.188
