Sample Index, EXG Channel 0, EXG Channel 1, EXG Channel 2, EXG Channel 3, Accel Channel 0, Accel Channel 1, Accel Channel 2, Other, Other, Other, Other, Other, Timestamp, Marker Channel, Timestamp (Formatted)
56.0, 154.85803746525198, -20.646117705386132, -73.89668322447687, 142.31441301386803, 0.0, 0.0, 0.0, 0.0, 0.0, 0.0, 0.0, 0.0, 1.75646946831256E9, 0.0, 2025-08-29 09:11:08.312
56.0, 257.9296802440658, -66.79835310857743, 104.7919967584312, 75.51418995531276, 0.0, 0.0, 0.0, 0.0, 0.0, 0.0, 0.0, 0.0, 1.75646946831256E9, 0.0, 2025-08-29 09:11:08.312
0.0, -146.97806825861335, -2118.24754575314, -2290.4063604134135, -2236.527491701767, 0.0, 0.0, 0.0, 0.0, 0.0, 0.0, 0.0, 0.0, 1.7564694683388455E9, 0.0, 2025-08-29 09:11:08.338
1.0, -46.17654475290328, -2348.0326088806614, -2447.62053485075, -2155.2089770152234, 0.0, 0.01600000075995922, 0.0, 0.0, 0.0, 0.0, 0.0, 0.0, 1.7564694683523767E9, 0.0, 2025-08-29 09:11:08.352
1.0, 133.5480875177309, -2331.5920086754486, -2284.1981264869682, -2216.1525167431682, 0.0, 0.01600000075995922, 0.0, 0.0, 0.0, 0.0, 0.0, 0.0, 1.7564694683523767E9, 0.0, 2025-08-29 09:11:08.352
2.0, -78.05545197520405, -2389.515579189174, -2528.548229991924, -2071.7942484035157, 0.0, 0.01600000075995922, 0.0, 0.0, 0.0, 0.0, 0.0, 0.0, 1.7564694683690903E9, 0.0, 2025-08-29 09:11:08.369
2.0, -146.7349747614935, -2225.9903235766105, -2676.5510308383964, -1934.227638383396, 0.0, 0.01600000075995922, 0.0, 0.0, 0.0, 0.0, 0.0, 0.0, 1.7564694683690903E9, 0.0, 2025-08-29 09:11:08.369
3.0, -349.01681361487135, -2199.149061594624, -2713.0206652563065, -2039.5226516858675, 0.0, 0.01600000075995922, 0.0, 0.0, 0.0, 0.0, 0.0, 0.0, 1.756469468369832E9, 0.0, 2025-08-29 09:11:08.369
3.0, -489.0611073556356, -1990.8123247129843, -2571.723505030386, -2144.6269300905988, 0.0, 0.01600000075995922, 0.0, 0.0, 0.0, 0.0, 0.0, 0.0, 1.756469468369832E9, 0.0, 2025-08-29 09:11:08.369
4.0, -651.499922031071, -2016.2473843116313, -2737.8049822626635, -2091.2118089734577, 0.0, 0.01600000075995922, 0.0, 0.0, 0.0, 0.0, 0.0, 0.0, 1.7564694683821435E9, 0.0, 2025-08-29 09:11:08.382
4.0, -419.86547837546095, -1937.7581039415672, -2939.959664517548, -2182.291462544352, 0.0, 0.01600000075995922, 0.0, 0.0, 0.0, 0.0, 0.0, 0.0, 1.7564694683821435E9, 0.0, 2025-08-29 09:11:08.382
5.0, -416.27143451804295, -2144.8494541379623, -2847.16526681697, -2376.82422868954, 0.0, 0.01600000075995922, 0.0, 0.0, 0.0, 0.0, 0.0, 0.0, 1.7564694683978791E9, 0.0, 2025-08-29 09:11:08.397
5.0, -631.2932425704785, -2094.306576186791, -2729.16581336502, -2198.9863759465516, 0.0, 0.01600000075995922, 0.0, 0.0, 0.0, 0.0, 0.0, 0.0, 1.7564694683978791E9, 0.0, 2025-08-29 09:11:08.397
6.0, -530.47301956499, -1860.682505754754, -2922.9113305695355, -2131.3895541974343, 0.0, 0.01600000075995922, 0.0, 0.0, 0.0, 0.0, 0.0, 0.0, 1.756469468398589E9, 0.0, 2025-08-29 09:11:08.398
6.0, -357.57370471348986, -1841.9418670767918, -2755.6667444510385, -2192.048861528747, 0.0, 0.01600000075995922, 0.0, 0.0, 0.0, 0.0, 0.0, 0.0, 1.756469468398589E9, 0.0, 2025-08-29 09:11:08.398
7.0, -562.3519267872907, -1865.290062500164, -2986.22409691941, -2036.1417821259238, 0.0, 0.01600000075995922, 0.0, 0.0, 0.0, 0.0, 0.0, 0.0, 1.7564694684121945E9, 0.0, 2025-08-29 09:11:08.412
7.0, -617.2947970363311, -1734.298196602147, -3156.109052406624, -1918.1909473733976, 0.0, 0.01600000075995922, 0.0, 0.0, 0.0, 0.0, 0.0, 0.0, 1.7564694684121945E9, 0.0, 2025-08-29 09:11:08.412
8.0, -828.9413453787565, -1715.2097472283058, -3189.4857895611785, -2026.803251936566, 0.0, 0.01600000075995922, 0.0, 0.0, 0.0, 0.0, 0.0, 0.0, 1.7564694684278586E9, 0.0, 2025-08-29 09:11:08.427
8.0, -970.1487480057403, -1480.2000438626856, -3022.428198440466, -2111.962643877603, 0.0, 0.01600000075995922, 0.0, 0.0, 0.0, 0.0, 0.0, 0.0, 1.7564694684278586E9, 0.0, 2025-08-29 09:11:08.427
9.0, -1139.8990670945495, -1500.2720869248733, -3188.6630115709268, -2056.1203276892193, 0.0, 0.01600000075995922, 0.0, 0.0, 0.0, 0.0, 0.0, 0.0, 1.7564694684286025E9, 0.0, 2025-08-29 09:11:08.428
9.0, -898.3426688564941, -1438.4253613576293, -3418.881903093308, -2167.855448715389, 0.0, 0.01600000075995922, 0.0, 0.0, 0.0, 0.0, 0.0, 0.0, 1.7564694684286025E9, 0.0, 2025-08-29 09:11:08.428
10.0, -900.4108335319906, -1627.5726715666242, -3291.3475747043267, -2336.4183495682664, 0.0, 0.01600000075995922, 0.49600002355873585, 0.0, 0.0, 0.0, 0.0, 0.0, 1.756469468442144E9, 0.0, 2025-08-29 09:11:08.442
10.0, -1107.6536496765912, -1574.8269925415516, -3187.118432889227, -2158.337403328158, 0.0, 0.01600000075995922, 0.49600002355873585, 0.0, 0.0, 0.0, 0.0, 0.0, 1.756469468442144E9, 0.0, 2025-08-29 09:11:08.442
11.0, -1008.55378065072, -1370.7780509591103, -3401.8373090452515, -2128.580889330711, 0.0, 0.03200000151991844, 0.49600002355873585, 0.0, 0.0, 0.0, 0.0, 0.0, 1.7564694684578848E9, 0.0, 2025-08-29 09:11:08.457
11.0, -841.4026920311153, -1335.8960040723905, -3227.240079613868, -2184.000596824102, 0.0, 0.03200000151991844, 0.49600002355873585, 0.0, 0.0, 0.0, 0.0, 0.0, 1.7564694684578848E9, 0.0, 2025-08-29 09:11:08.457
12.0, -1039.5538113834336, -1349.2698863139376, -3445.164050031919, -2015.6882692682557, 0.0, 0.03200000151991844, 0.49600002355873585, 0.0, 0.0, 0.0, 0.0, 0.0, 1.7564694684585829E9, 0.0, 2025-08-29 09:11:08.458
12.0, -1105.738820899278, -1231.386369760614, -3641.041310211178, -1919.3540562596172, 0.0, 0.03200000151991844, 0.49600002355873585, 0.0, 0.0, 0.0, 0.0, 0.0, 1.7564694684585829E9, 0.0, 2025-08-29 09:11:08.458
13.0, -1318.4213215294294, -1211.0413140016608, -3702.2055040365085, -2037.2749718124978, 0.0, 0.03200000151991844, 0.49600002355873585, 0.0, 0.0, 0.0, 0.0, 0.0, 1.756469468472142E9, 0.0, 2025-08-29 09:11:08.472
13.0, -1454.060013122391, -973.2117260694504, -3510.846043003723, -2104.7109778635204, 0.0, 0.03200000151991844, 0.49600002355873585, 0.0, 0.0, 0.0, 0.0, 0.0, 1.756469468472142E9, 0.0, 2025-08-29 09:11:08.472
14.0, -1622.3031525290571, -1010.0048618335277, -3680.031637199223, -2043.8871149341576, 0.0, 0.03200000151991844, 0.49600002355873585, 0.0, 0.0, 0.0, 0.0, 0.0, 1.7564694684878263E9, 0.0, 2025-08-29 09:11:08.487
14.0, -1385.9190359297208, -964.5912566715851, -3449.6949388282374, -2190.1115933516994, 0.0, 0.03200000151991844, 0.49600002355873585, 0.0, 0.0, 0.0, 0.0, 0.0, 1.7564694684878263E9, 0.0, 2025-08-29 09:11:08.487
15.0, -1384.2435607495718, -1136.1348577891476, -3299.4332384085283, -2337.2261679586954, 0.0, 0.03200000151991844, 0.49600002355873585, 0.0, 0.0, 0.0, 0.0, 0.0, 1.7564694684885347E9, 0.0, 2025-08-29 09:11:08.488
15.0, -1590.633679704275, -1076.4741037460044, -3168.082342114765, -2138.414956264198, 0.0, 0.03200000151991844, 0.49600002355873585, 0.0, 0.0, 0.0, 0.0, 0.0, 1.7564694684885347E9, 0.0, 2025-08-29 09:11:08.488
16.0, -1493.1382277593948, -888.7573052700609, -2939.4603878734633, -2145.505806580186, 0.0, 0.03200000151991844, 0.49600002355873585, 0.0, 0.0, 0.0, 0.0, 0.0, 1.7564694685021763E9, 0.0, 2025-08-29 09:11:08.502
16.0, -1326.940813628491, -851.4256239123642, -2779.385189970024, -2205.0805429243483, 0.0, 0.03200000151991844, 0.49600002355873585, 0.0, 0.0, 0.0, 0.0, 0.0, 1.7564694685021763E9, 0.0, 2025-08-29 09:11:08.502
17.0, -1527.9118175473996, -899.8348889388144, -3004.3813112042844, -2053.7174419676885, 0.0, 0.03200000151991844, 0.49600002355873585, 0.0, 0.0, 0.0, 0.0, 0.0, 1.7564694685178704E9, 0.0, 2025-08-29 09:11:08.517
17.0, -1606.3786585177295, -833.77142617153, -2827.833723946009, -2076.227899800986, 0.0, 0.03200000151991844, 0.49600002355873585, 0.0, 0.0, 0.0, 0.0, 0.0, 1.7564694685178704E9, 0.0, 2025-08-29 09:11:08.517
18.0, -1807.5983657836914, -782.6357740773819, -2867.6954476237297, -2168.7025360553525, 0.0, 0.03200000151991844, 0.49600002355873585, 0.0, 0.0, 0.0, 0.0, 0.0, 1.7564694685185328E9, 0.0, 2025-08-29 09:11:08.518
18.0, -1932.4998046038672, -980.1211912375875, -3088.7179251550697, -2154.610593022313, 0.0, 0.03200000151991844, 0.49600002355873585, 0.0, 0.0, 0.0, 0.0, 0.0, 1.7564694685185328E9, 0.0, 2025-08-29 09:11:08.518
19.0, -2105.3467608559877, -1023.3207756257616, -3252.087974919472, -2102.4670378901064, 0.0, 0.03200000151991844, 0.49600002355873585, 0.0, 0.0, 0.0, 0.0, 0.0, 1.756469468532158E9, 0.0, 2025-08-29 09:11:08.532
19.0, -1874.3032213933766, -996.2214605468325, -3061.278279180173, -2268.7186805703677, 0.0, 0.03200000151991844, 0.49600002355873585, 0.0, 0.0, 0.0, 0.0, 0.0, 1.756469468532158E9, 0.0, 2025-08-29 09:11:08.532
20.0, -1864.325168311596, -1132.1238150866702, -2866.2761555905454, -2385.0089997425675, 0.0, 0.03200000151991844, 0.7200000341981649, 0.0, 0.0, 0.0, 0.0, 0.0, 1.756469468547861E9, 0.0, 2025-08-29 09:11:08.547
20.0, -2074.3916089227423, -1070.5519721661694, -2701.8533239886165, -2156.6937172976322, 0.0, 0.03200000151991844, 0.7200000341981649, 0.0, 0.0, 0.0, 0.0, 0.0, 1.756469468547861E9, 0.0, 2025-08-29 09:11:08.547
21.0, -1997.6339022321627, -922.6501486185007, -2520.0062984931283, -2208.483851884026, 0.0, 0.04800000227987766, 0.7200000341981649, 0.0, 0.0, 0.0, 0.0, 0.0, 1.756469468548561E9, 0.0, 2025-08-29 09:11:08.548
21.0, -1808.2603280758485, -849.161114489194, -2322.8986112284474, -2231.9012354565784, 0.0, 0.04800000227987766, 0.7200000341981649, 0.0, 0.0, 0.0, 0.0, 0.0, 1.756469468548561E9, 0.0, 2025-08-29 09:11:08.548
22.0, -2017.7134250942618, -825.9344658143818, -2440.8625356308185, -2473.1135628987104, 0.0, 0.04800000227987766, 0.7200000341981649, 0.0, 0.0, 0.0, 0.0, 0.0, 1.7564694685622063E9, 0.0, 2025-08-29 09:11:08.562
22.0, -2079.545191061683, -765.3611761820503, -2220.221527894959, -2446.4910850641318, 0.0, 0.04800000227987766, 0.7200000341981649, 0.0, 0.0, 0.0, 0.0, 0.0, 1.7564694685622063E9, 0.0, 2025-08-29 09:11:08.562
23.0, -2292.051916393917, -757.9673939696513, -2317.1952637960203, -2601.949376472272, 0.0, 0.04800000227987766, 0.7200000341981649, 0.0, 0.0, 0.0, 0.0, 0.0, 1.7564694685778236E9, 0.0, 2025-08-29 09:11:08.577
23.0, -2430.0205656592734, -925.4662932851352, -2503.257156541571, -2559.4641129756346, 0.0, 0.04800000227987766, 0.7200000341981649, 0.0, 0.0, 0.0, 0.0, 0.0, 1.7564694685778236E9, 0.0, 2025-08-29 09:11:08.577
24.0, -2600.8666754350998, -990.8397445105948, -2683.8195264022797, -2517.9867525170557, 0.0, 0.04800000227987766, 0.7200000341981649, 0.0, 0.0, 0.0, 0.0, 0.0, 1.7564694685785513E9, 0.0, 2025-08-29 09:11:08.578
24.0, -2366.1617739158683, -983.5581592968665, -2528.860511638224, -2727.5314770843834, 0.0, 0.04800000227987766, 0.7200000341981649, 0.0, 0.0, 0.0, 0.0, 0.0, 1.7564694685785513E9, 0.0, 2025-08-29 09:11:08.578
25.0, -2355.5067989421077, -1111.5842845300213, -2328.622528110631, -2827.8599032456987, 0.0, 0.04800000227987766, 0.7200000341981649, 0.0, 0.0, 0.0, 0.0, 0.0, 1.7564694685921867E9, 0.0, 2025-08-29 09:11:08.592
25.0, -2564.22313566925, -1041.8370203063823, -2155.1977573153563, -2587.8200344396755, 0.0, 0.04800000227987766, 0.7200000341981649, 0.0, 0.0, 0.0, 0.0, 0.0, 1.7564694685921867E9, 0.0, 2025-08-29 09:11:08.592
26.0, -2492.5928318179213, -915.1591290072538, -1994.4026286704466, -2672.416571437381, 0.0, 0.04800000227987766, 0.7200000341981649, 0.0, 0.0, 0.0, 0.0, 0.0, 1.756469468607864E9, 0.0, 2025-08-29 09:11:08.607
26.0, -2296.898826736491, -839.6019302024506, -1792.6312861610204, -2698.6912385760807, 0.0, 0.04800000227987766, 0.7200000341981649, 0.0, 0.0, 0.0, 0.0, 0.0, 1.756469468607864E9, 0.0, 2025-08-29 09:11:08.607
27.0, -2493.161296611186, -793.5319725982845, -1888.0211744308472, -2914.6405418175273, 0.0, 0.04800000227987766, 0.7200000341981649, 0.0, 0.0, 0.0, 0.0, 0.0, 1.756469468608568E9, 0.0, 2025-08-29 09:11:08.608
27.0, -2571.7665138798766, -741.0368668702431, -1676.4419442876242, -2901.2647896260023, 0.0, 0.04800000227987766, 0.7200000341981649, 0.0, 0.0, 0.0, 0.0, 0.0, 1.756469468608568E9, 0.0, 2025-08-29 09:11:08.608
28.0, -2786.487259985879, -748.7429307289422, -1797.7437294004485, -3077.3561090896837, 0.0, 0.04800000227987766, 0.7200000341981649, 0.0, 0.0, 0.0, 0.0, 0.0, 1.7564694686385863E9, 0.0, 2025-08-29 09:11:08.638
28.0, -2916.3029273478314, -903.3952736966312, -1972.361528281588, -3021.885912946891, 0.0, 0.04800000227987766, 0.7200000341981649, 0.0, 0.0, 0.0, 0.0, 0.0, 1.7564694686385863E9, 0.0, 2025-08-29 09:11:08.638
29.0, -3084.527367254719, -975.9455929370597, -2153.3240674375556, -2982.0541084688157, 0.0, 0.04800000227987766, 0.7200000341981649, 0.0, 0.0, 0.0, 0.0, 0.0, 1.7564694686392736E9, 0.0, 2025-08-29 09:11:08.639
29.0, -2848.577079050243, -989.3250850285403, -2028.4600276169367, -2738.1191338589415, 0.0, 0.04800000227987766, 0.7200000341981649, 0.0, 0.0, 0.0, 0.0, 0.0, 1.7564694686392736E9, 0.0, 2025-08-29 09:11:08.639
30.0, -2849.3811575407162, -1087.7985208118334, -1804.7840910670348, -2802.8362326421775, 0.0, 0.04800000227987766, 0.8480000402778387, 0.0, 0.0, 0.0, 0.0, 0.0, 1.7564694686400688E9, 0.0, 2025-08-29 09:11:08.640
30.0, -3053.8901068177074, -1018.395327384118, -1603.5456843012944, -3038.966036044527, 0.0, 0.04800000227987766, 0.8480000402778387, 0.0, 0.0, 0.0, 0.0, 0.0, 1.7564694686400688E9, 0.0, 2025-08-29 09:11:08.640
31.0, -2969.0205571232364, -911.0489789559506, -1475.2577660712413, -3143.926328300964, 0.0, 0.04800000227987766, 0.8480000402778387, 0.0, 0.0, 0.0, 0.0, 0.0, 1.7564694686521692E9, 0.0, 2025-08-29 09:11:08.652
31.0, -2787.3287374759093, -836.1500025433488, -1280.9437840734608, -3178.7765860380605, 0.0, 0.04800000227987766, 0.8480000402778387, 0.0, 0.0, 0.0, 0.0, 0.0, 1.7564694686521692E9, 0.0, 2025-08-29 09:11:08.652
32.0, -2983.56876795087, -770.7485020682216, -1357.5070159663446, -3361.2537846760824, 0.0, 0.04800000227987766, 0.8480000402778387, 0.0, 0.0, 0.0, 0.0, 0.0, 1.7564694686842752E9, 0.0, 2025-08-29 09:11:08.684
32.0, -3048.8001029780135, -739.0995986931957, -1153.654419131577, -3364.189606141299, 0.0, 0.04800000227987766, 0.8480000402778387, 0.0, 0.0, 0.0, 0.0, 0.0, 1.7564694686842752E9, 0.0, 2025-08-29 09:11:08.684
33.0, -3272.0029421835206, -753.7356971697882, -1291.7184358458035, -3552.5814565592445, 0.0, 0.04800000227987766, 0.8480000402778387, 0.0, 0.0, 0.0, 0.0, 0.0, 1.7564694686850133E9, 0.0, 2025-08-29 09:11:08.685
33.0, -3401.949506043922, -883.2633922351524, -1429.9694475578144, -3453.54516583262, 0.0, 0.04800000227987766, 0.8480000402778387, 0.0, 0.0, 0.0, 0.0, 0.0, 1.7564694686850133E9, 0.0, 2025-08-29 09:11:08.685
34.0, -3574.9310986944474, -965.4364740615711, -1619.0438297176734, -3421.840163958259, 0.0, 0.04800000227987766, 0.8480000402778387, 0.0, 0.0, 0.0, 0.0, 0.0, 1.7564694686857576E9, 0.0, 2025-08-29 09:11:08.685
34.0, -3342.552414947655, -997.5491250311024, -1522.6628679595888, -3209.1071746787056, 0.0, 0.04800000227987766, 0.8480000402778387, 0.0, 0.0, 0.0, 0.0, 0.0, 1.7564694686857576E9, 0.0, 2025-08-29 09:11:08.685
35.0, -3333.2737231575884, -1078.927478116937, -1282.5799903040752, -3267.077493941877, 0.0, 0.04800000227987766, 0.8480000402778387, 0.0, 0.0, 0.0, 0.0, 0.0, 1.7564694686864948E9, 0.0, 2025-08-29 09:11:08.686
35.0, -3546.0590710365213, -1011.1885401695035, -1090.17896713363, -3507.093053398188, 0.0, 0.04800000227987766, 0.8480000402778387, 0.0, 0.0, 0.0, 0.0, 0.0, 1.7564694686864948E9, 0.0, 2025-08-29 09:11:08.686
36.0, -3449.061025785748, -919.0561047610827, -994.6450927155092, -3642.2754771965556, 0.0, 0.04800000227987766, 0.8480000402778387, 0.0, 0.0, 0.0, 0.0, 0.0, 1.75646946869717E9, 0.0, 2025-08-29 09:11:08.697
36.0, -3270.4247044022195, -837.7992984238081, -796.6547890612856, -3664.982279777527, 0.0, 0.04800000227987766, 0.8480000402778387, 0.0, 0.0, 0.0, 0.0, 0.0, 1.75646946869717E9, 0.0, 2025-08-29 09:11:08.697
37.0, -3472.7420723051764, -765.0077556362376, -855.8461856599897, -3842.534030173905, 0.0, 0.04800000227987766, 0.8480000402778387, 0.0, 0.0, 0.0, 0.0, 0.0, 1.756469468712171E9, 0.0, 2025-08-29 09:11:08.712
37.0, -3542.1359159830026, -753.834804518614, -667.2598604443483, -3858.0546149900183, 0.0, 0.04800000227987766, 0.8480000402778387, 0.0, 0.0, 0.0, 0.0, 0.0, 1.756469468712171E9, 0.0, 2025-08-29 09:11:08.712
38.0, -3760.331029147841, -771.6535578574985, -828.8478478798643, -4071.844126007054, 0.0, 0.04800000227987766, 0.8480000402778387, 0.0, 0.0, 0.0, 0.0, 0.0, 1.7564694687278173E9, 0.0, 2025-08-29 09:11:08.727
38.0, -3885.374584166333, -893.7837308105081, -958.8112412900664, -3964.793229675386, 0.0, 0.04800000227987766, 0.8480000402778387, 0.0, 0.0, 0.0, 0.0, 0.0, 1.7564694687278173E9, 0.0, 2025-08-29 09:11:08.727
39.0, -4058.490813215263, -983.1037614522502, -1153.6450693816878, -3948.1899438221008, 0.0, 0.04800000227987766, 0.8480000402778387, 0.0, 0.0, 0.0, 0.0, 0.0, 1.7564694687285252E9, 0.0, 2025-08-29 09:11:08.728
39.0, -3828.5729836393148, -1029.6374666509219, -1098.1860929387622, -3769.5124835390598, 0.0, 0.04800000227987766, 0.8480000402778387, 0.0, 0.0, 0.0, 0.0, 0.0, 1.7564694687285252E9, 0.0, 2025-08-29 09:11:08.728
40.0, -3816.631483080797, -1121.513718912378, -870.3850467377342, -3827.3930452032946, 0.0, 0.04800000227987766, 0.9120000433176756, 0.0, 0.0, 0.0, 0.0, 0.0, 1.756469468742178E9, 0.0, 2025-08-29 09:11:08.742
40.0, -4031.623371933587, -1032.3563739187084, -653.6036157561466, -4036.517031025607, 0.0, 0.04800000227987766, 0.9120000433176756, 0.0, 0.0, 0.0, 0.0, 0.0, 1.756469468742178E9, 0.0, 2025-08-29 09:11:08.742
41.0, -3951.649351281114, -964.219136625994, -584.8586447206326, -4202.583548658062, 0.0, 0.04800000227987766, 0.9120000433176756, 0.0, 0.0, 0.0, 0.0, 0.0, 1.7564694687579057E9, 0.0, 2025-08-29 09:11:08.757
41.0, -3764.0260503040627, -894.5597600513138, -414.1060324436985, -4253.773429301567, 0.0, 0.04800000227987766, 0.9120000433176756, 0.0, 0.0, 0.0, 0.0, 0.0, 1.7564694687579057E9, 0.0, 2025-08-29 09:11:08.757
42.0, -3962.2781469551846, -793.8423842946067, -445.5922501706518, -4401.907126646489, 0.0, 0.04800000227987766, 0.9120000433176756, 0.0, 0.0, 0.0, 0.0, 0.0, 1.7564694687586076E9, 0.0, 2025-08-29 09:11:08.758
42.0, -4037.3790779653937, -791.1552661764435, -266.864301238209, -4431.70290959347, 0.0, 0.04800000227987766, 0.9120000433176756, 0.0, 0.0, 0.0, 0.0, 0.0, 1.7564694687586076E9, 0.0, 2025-08-29 09:11:08.758
43.0, -4251.9988467725925, -836.256589692086, -463.36425476009026, -4188.732829172164, 0.0, 0.04800000227987766, 0.9120000433176756, 0.0, 0.0, 0.0, 0.0, 0.0, 1.7564694687722003E9, 0.0, 2025-08-29 09:11:08.772
43.0, -4376.672151695471, -940.8279323531315, -572.780637813732, -4064.642948642373, 0.0, 0.04800000227987766, 0.9120000433176756, 0.0, 0.0, 0.0, 0.0, 0.0, 1.7564694687722003E9, 0.0, 2025-08-29 09:11:08.772
44.0, -4555.697422674391, -1012.7125494014472, -759.7045774990693, -4031.4232872859575, 0.0, 0.04800000227987766, 0.9120000433176756, 0.0, 0.0, 0.0, 0.0, 0.0, 1.7564694687878683E9, 0.0, 2025-08-29 09:11:08.787
44.0, -4315.764141017105, -1057.7914335173555, -687.0869400594383, -3836.712875892874, 0.0, 0.04800000227987766, 0.9120000433176756, 0.0, 0.0, 0.0, 0.0, 0.0, 1.7564694687878683E9, 0.0, 2025-08-29 09:11:08.787
45.0, -4306.021701632533, -1119.4193749371916, -904.9753814279102, -3856.936384903267, 0.0, 0.04800000227987766, 0.9120000433176756, 0.0, 0.0, 0.0, 0.0, 0.0, 1.7564694687885761E9, 0.0, 2025-08-29 09:11:08.788
45.0, -4512.333282688167, -1024.4053466129117, -662.2614841535687, -4053.692521572113, 0.0, 0.04800000227987766, 0.9120000433176756, 0.0, 0.0, 0.0, 0.0, 0.0, 1.7564694687885761E9, 0.0, 2025-08-29 09:11:08.788
46.0, -4436.4656721870415, -994.85265716305, -628.742630800698, -4254.053921798244, 0.0, 0.04800000227987766, 0.9120000433176756, 0.0, 0.0, 0.0, 0.0, 0.0, 1.7564694688022068E9, 0.0, 2025-08-29 09:11:08.802
46.0, -4250.517846390139, -882.6444387924857, -430.27361995214596, -4268.98173247138, 0.0, 0.04800000227987766, 0.9120000433176756, 0.0, 0.0, 0.0, 0.0, 0.0, 1.7564694688022068E9, 0.0, 2025-08-29 09:11:08.802
47.0, -4445.852821075823, -774.312626725994, -419.1231082342565, -4377.708103983197, 0.0, 0.04800000227987766, 0.9120000433176756, 0.0, 0.0, 0.0, 0.0, 0.0, 1.7564694688176405E9, 0.0, 2025-08-29 09:11:08.817
47.0, -4526.032536225859, -785.5285866931081, -261.49941475177184, -4411.139069687109, 0.0, 0.04800000227987766, 0.9120000433176756, 0.0, 0.0, 0.0, 0.0, 0.0, 1.7564694688176405E9, 0.0, 2025-08-29 09:11:08.817
48.0, -4741.478822923265, -825.6820225673728, -461.94496272690594, -4178.285418645944, 0.0, 0.04800000227987766, 0.9120000433176756, 0.0, 0.0, 0.0, 0.0, 0.0, 1.756469468832851E9, 0.0, 2025-08-29 09:11:08.832
48.0, -4864.615028964356, -903.5280401450582, -539.5086178579368, -4018.3635566406883, 0.0, 0.04800000227987766, 0.9120000433176756, 0.0, 0.0, 0.0, 0.0, 0.0, 1.756469468832851E9, 0.0, 2025-08-29 09:11:08.832
49.0, -5039.582508491352, -991.6849619005807, -709.6478865421377, -3978.4419945636764, 0.0, 0.04800000227987766, 0.9120000433176756, 0.0, 0.0, 0.0, 0.0, 0.0, 1.7564694688335636E9, 0.0, 2025-08-29 09:11:08.833
49.0, -4807.465617741458, -1075.8009217539802, -696.6143351965584, -3845.8251421349123, 0.0, 0.04800000227987766, 0.9120000433176756, 0.0, 0.0, 0.0, 0.0, 0.0, 1.7564694688335636E9, 0.0, 2025-08-29 09:11:08.833
50.0, -4791.111035235226, -1117.5438151094131, -903.3055160976946, -3859.447727723513, 0.0, 0.04800000227987766, 0.944000044837594, 0.0, 0.0, 0.0, 0.0, 0.0, 1.7564694688478043E9, 0.0, 2025-08-29 09:11:08.847
50.0, -5013.530365400016, -1015.1584439724684, -1131.3122567962855, -4025.4918059562333, 0.0, 0.04800000227987766, 0.944000044837594, 0.0, 0.0, 0.0, 0.0, 0.0, 1.7564694688478043E9, 0.0, 2025-08-29 09:11:08.847
51.0, -4928.410242408514, -987.9132727952674, -1125.0647539203055, -4253.255453157704, 0.0, 0.04800000227987766, 0.944000044837594, 0.0, 0.0, 0.0, 0.0, 0.0, 1.7564694688485537E9, 0.0, 2025-08-29 09:11:08.848
51.0, -4743.872358894907, -890.0438308548182, -926.2105333763175, -4273.879131463356, 0.0, 0.04800000227987766, 0.944000044837594, 0.0, 0.0, 0.0, 0.0, 0.0, 1.7564694688485537E9, 0.0, 2025-08-29 09:11:08.848
52.0, -4941.754205450416, -739.784000385087, -864.4255161583424, -4334.974137139507, 0.0, 0.04800000227987766, 0.944000044837594, 0.0, 0.0, 0.0, 0.0, 0.0, 1.7564694688621812E9, 0.0, 2025-08-29 09:11:08.862
52.0, -5017.045871358365, -771.6442081076093, -724.6224459647201, -4396.600208609365, 0.0, 0.04800000227987766, 0.944000044837594, 0.0, 0.0, 0.0, 0.0, 0.0, 1.7564694688621812E9, 0.0, 2025-08-29 09:11:08.862
53.0, -5227.993058409076, -814.3744350513443, -920.6287326924503, -4160.739678003825, 0.0, 0.04800000227987766, 0.944000044837594, 0.0, 0.0, 0.0, 0.0, 0.0, 1.7564694688778274E9, 0.0, 2025-08-29 09:11:08.877
53.0, -5353.062792727258, -857.8021533368155, -956.5673013166524, -3963.6357306391, 0.0, 0.04800000227987766, 0.944000044837594, 0.0, 0.0, 0.0, 0.0, 0.0, 1.7564694688778274E9, 0.0, 2025-08-29 09:11:08.877
54.0, -5530.464947125409, -942.7240616306663, -1116.4255850226618, -3907.352106255945, 0.0, 0.04800000227987766, 0.944000044837594, 0.0, 0.0, 0.0, 0.0, 0.0, 1.7564694688785655E9, 0.0, 2025-08-29 09:11:08.878
54.0, -5297.974066379946, -1040.068047627341, -1133.5561967696995, -3797.0474969628267, 0.0, 0.04800000227987766, 0.944000044837594, 0.0, 0.0, 0.0, 0.0, 0.0, 1.7564694688785655E9, 0.0, 2025-08-29 09:11:08.878
55.0, -5277.546732821967, -1061.2639306262136, -1307.5980510576628, -3776.8258579024114, 0.0, 0.04800000227987766, 0.944000044837594, 0.0, 0.0, 0.0, 0.0, 0.0, 1.7564694688921835E9, 0.0, 2025-08-29 09:11:08.892
55.0, -5491.73828308424, -939.1505872230045, -1506.1755190049298, -3926.3283586311154, 0.0, 0.04800000227987766, 0.944000044837594, 0.0, 0.0, 0.0, 0.0, 0.0, 1.7564694688921835E9, 0.0, 2025-08-29 09:11:08.892
56.0, -5408.555428269785, -951.5090866265818, -1527.3246532543562, -3686.9280127175152, 0.0, 0.04800000227987766, 0.944000044837594, 0.0, 0.0, 0.0, 0.0, 0.0, 1.7564694689079149E9, 0.0, 2025-08-29 09:11:08.907
56.0, -5225.741638635751, -845.217389985919, -1361.314234121237, -3730.1481665554456, 0.0, 0.04800000227987766, 0.944000044837594, 0.0, 0.0, 0.0, 0.0, 0.0, 1.7564694689079149E9, 0.0, 2025-08-29 09:11:08.907
57.0, -5428.212342436891, -703.5069708148949, -1331.8793515199795, -3812.9308520746417, 0.0, 0.04800000227987766, 0.944000044837594, 0.0, 0.0, 0.0, 0.0, 0.0, 1.7564694689085784E9, 0.0, 2025-08-29 09:11:08.908
57.0, -5500.515828280244, -788.387740209233, -1211.17221050011, -3930.386150083039, 0.0, 0.04800000227987766, 0.944000044837594, 0.0, 0.0, 0.0, 0.0, 0.0, 1.7564694689085784E9, 0.0, 2025-08-29 09:11:08.908
58.0, -5715.41608958412, -839.2260702569038, -967.0577206923626, -3726.9767313930206, 0.0, 0.04800000227987766, 0.944000044837594, 0.0, 0.0, 0.0, 0.0, 0.0, 1.7564694689222636E9, 0.0, 2025-08-29 09:11:08.922
58.0, -5851.2679554745555, -906.3423148617148, -1032.1600291710347, -3556.6953465105034, 0.0, 0.04800000227987766, 0.944000044837594, 0.0, 0.0, 0.0, 0.0, 0.0, 1.7564694689222636E9, 0.0, 2025-08-29 09:11:08.922
59.0, -6022.589032544754, -1080.0419683037326, -865.4633383960463, -3654.4787707519718, 0.0, 0.04800000227987766, 0.944000044837594, 0.0, 0.0, 0.0, 0.0, 0.0, 1.756469468937853E9, 0.0, 2025-08-29 09:11:08.937
59.0, -5787.8168128263205, -1218.2892401157878, -949.0370127558708, -3614.039232531097, 0.0, 0.04800000227987766, 0.944000044837594, 0.0, 0.0, 0.0, 0.0, 0.0, 1.756469468937853E9, 0.0, 2025-08-29 09:11:08.937
60.0, -5766.6751583768055, -1210.6822836059146, -1135.009147902485, -3601.372191381175, 0.0, 0.04800000227987766, 0.9600000455975533, 0.0, 0.0, 0.0, 0.0, 0.0, 1.7564694689386096E9, 0.0, 2025-08-29 09:11:08.938
60.0, -5993.182199193165, -1157.3830993873999, -922.8726726658642, -3821.8692129687406, 0.0, 0.04800000227987766, 0.9600000455975533, 0.0, 0.0, 0.0, 0.0, 0.0, 1.7564694689386096E9, 0.0, 2025-08-29 09:11:08.938
61.0, -5919.128440170549, -1208.3710254332982, -1069.9404985234141, -3699.8792862640694, 0.0, 0.04800000227987766, 0.9600000455975533, 0.0, 0.0, 0.0, 0.0, 0.0, 1.7564694689521604E9, 0.0, 2025-08-29 09:11:08.952
61.0, -5713.81915230304, -1111.0625684862025, -936.7776207011193, -3775.285019120667, 0.0, 0.04800000227987766, 0.9600000455975533, 0.0, 0.0, 0.0, 0.0, 0.0, 1.7564694689521604E9, 0.0, 2025-08-29 09:11:08.952
62.0, -5922.352233932354, -1018.0680861379951, -976.0278707360849, -3928.0412328108214, 0.0, 0.04800000227987766, 0.9600000455975533, 0.0, 0.0, 0.0, 0.0, 0.0, 1.756469468967842E9, 0.0, 2025-08-29 09:11:08.967
62.0, -6027.1591902906075, -1133.6010755691677, -971.0107949455269, -4125.549089370761, 0.0, 0.04800000227987766, 0.9600000455975533, 0.0, 0.0, 0.0, 0.0, 0.0, 1.756469468967842E9, 0.0, 2025-08-29 09:11:08.967
63.0, -6207.270902206656, -1215.1103251534514, -831.6920417961664, -4025.701240353752, 0.0, 0.04800000227987766, 0.9600000455975533, 0.0, 0.0, 0.0, 0.0, 0.0, 1.7564694689685793E9, 0.0, 2025-08-29 09:11:08.968
63.0, -6328.223006673623, -1179.7327415226027, -797.1166667058133, -4251.013383134268, 0.0, 0.04800000227987766, 0.9600000455975533, 0.0, 0.0, 0.0, 0.0, 0.0, 1.7564694689685793E9, 0.0, 2025-08-29 09:11:08.968
64.0, -6532.922690848354, -1326.5088551836088, -980.7008757307194, -4236.773714052979, 0.0, 0.04800000227987766, 0.9600000455975533, 0.0, 0.0, 0.0, 0.0, 0.0, 1.7564694689821956E9, 0.0, 2025-08-29 09:11:08.982
64.0, -6294.152518077288, -1448.3604055899195, -1058.4814450591803, -4169.145103154238, 0.0, 0.04800000227987766, 0.9600000455975533, 0.0, 0.0, 0.0, 0.0, 0.0, 1.7564694689821956E9, 0.0, 2025-08-29 09:11:08.982
65.0, -6252.445153771434, -1373.2744341795333, -1124.9226377219893, -4037.702579311561, 0.0, 0.04800000227987766, 0.9600000455975533, 0.0, 0.0, 0.0, 0.0, 0.0, 1.7564694689978428E9, 0.0, 2025-08-29 09:11:08.997
65.0, -6481.854356953409, -1245.5998595422134, -1269.8437610049732, -4140.12721939804, 0.0, 0.04800000227987766, 0.9600000455975533, 0.0, 0.0, 0.0, 0.0, 0.0, 1.7564694689978428E9, 0.0, 2025-08-29 09:11:08.997
66.0, -6432.323121940251, -1307.7626066557132, -1348.6434530713595, -3961.6161846630275, 0.0, 0.04800000227987766, 0.9600000455975533, 0.0, 0.0, 0.0, 0.0, 0.0, 1.75646946899858E9, 0.0, 2025-08-29 09:11:08.998
66.0, -6207.906685199123, -1165.751125538256, -1148.3493710444309, -3973.178085376043, 0.0, 0.04800000227987766, 0.9600000455975533, 0.0, 0.0, 0.0, 0.0, 0.0, 1.75646946899858E9, 0.0, 2025-08-29 09:11:08.998
67.0, -6408.814110818785, -977.1573205227032, -1014.885431275703, -3955.628604833968, 0.0, 0.04800000227987766, 0.9600000455975533, 0.0, 0.0, 0.0, 0.0, 0.0, 1.75646946901218E9, 0.0, 2025-08-29 09:11:09.012
67.0, -6503.785130293574, -1062.1839460153133, -927.7401524581946, -4073.499031737447, 0.0, 0.04800000227987766, 0.9600000455975533, 0.0, 0.0, 0.0, 0.0, 0.0, 1.75646946901218E9, 0.0, 2025-08-29 09:11:09.012
68.0, -6696.182413564064, -1128.3072471818887, -693.8767284289934, -3894.2680662609637, 0.0, 0.04800000227987766, 0.9600000455975533, 0.0, 0.0, 0.0, 0.0, 0.0, 1.7564694690278592E9, 0.0, 2025-08-29 09:11:09.027
68.0, -6812.564360285178, -1099.5492864726111, -632.5610686554573, -4089.2159613012336, 0.0, 0.04800000227987766, 0.9600000455975533, 0.0, 0.0, 0.0, 0.0, 0.0, 1.7564694690278592E9, 0.0, 2025-08-29 09:11:09.027
69.0, -7023.820089082234, -1219.5925952503458, -788.0100103137083, -4032.88745811861, 0.0, 0.04800000227987766, 0.9600000455975533, 0.0, 0.0, 0.0, 0.0, 0.0, 1.7564694690285814E9, 0.0, 2025-08-29 09:11:09.028
69.0, -6789.365760860033, -1381.6518100802787, -908.9116261312738, -4030.235869050026, 0.0, 0.04800000227987766, 0.9600000455975533, 0.0, 0.0, 0.0, 0.0, 0.0, 1.7564694690285814E9, 0.0, 2025-08-29 09:11:09.028
70.0, -6743.4734485037625, -1306.1507097748108, -985.1812758776359, -3909.53433788009, 0.0, 0.04800000227987766, 0.9600000455975533, 0.0, 0.0, 0.0, 0.0, 0.0, 1.7564694690421984E9, 0.0, 2025-08-29 09:11:09.042
70.0, -6966.9923092555255, -1152.2856157477945, -1069.4150425796397, -3944.7529757628217, 0.0, 0.04800000227987766, 0.9600000455975533, 0.0, 0.0, 0.0, 0.0, 0.0, 1.7564694690421984E9, 0.0, 2025-08-29 09:11:09.042
71.0, -6896.0277075963095, -1229.9203289779834, -1160.3507100022398, -3778.1236031870358, 0.0, 0.04800000227987766, 0.9600000455975533, 0.0, 0.0, 0.0, 0.0, 0.0, 1.7564694690578675E9, 0.0, 2025-08-29 09:11:09.057
71.0, -6700.161667116918, -1061.6360506718047, -932.4935653018765, -3762.139270776417, 0.0, 0.04800000227987766, 0.9600000455975533, 0.0, 0.0, 0.0, 0.0, 0.0, 1.7564694690578675E9, 0.0, 2025-08-29 09:11:09.057
72.0, -6895.620058501139, -836.2042310927063, -719.1378826797009, -3687.990144304931, 0.0, 0.04800000227987766, 0.9600000455975533, 0.0, 0.0, 0.0, 0.0, 0.0, 1.7564694690585928E9, 0.0, 2025-08-29 09:11:09.058
72.0, -6994.847084125504, -928.8340731952339, -611.097782809753, -3781.786835193634, 0.0, 0.04800000227987766, 0.9600000455975533, 0.0, 0.0, 0.0, 0.0, 0.0, 1.7564694690585928E9, 0.0, 2025-08-29 09:11:09.058
73.0, -7193.8639903175645, -991.0491789081134, -394.29952227836475, -3606.389267171733, 0.0, 0.04800000227987766, 0.9600000455975533, 0.0, 0.0, 0.0, 0.0, 0.0, 1.7564694690721772E9, 0.0, 2025-08-29 09:11:09.072
73.0, -7305.866514190566, -929.7166895847768, -262.2249553431757, -3745.0067890794016, 0.0, 0.04800000227987766, 0.9600000455975533, 0.0, 0.0, 0.0, 0.0, 0.0, 1.7564694690721772E9, 0.0, 2025-08-29 09:11:09.072
74.0, -7492.20328958286, -1043.2712719393894, -394.8792067714967, -3674.264711467549, 0.0, 0.04800000227987766, 0.9600000455975533, 0.0, 0.0, 0.0, 0.0, 0.0, 1.756469469087939E9, 0.0, 2025-08-29 09:11:09.087
74.0, -7279.4329013037495, -1222.8668776615523, -524.5658475849777, -3670.094723016955, 0.0, 0.04800000227987766, 0.9600000455975533, 0.0, 0.0, 0.0, 0.0, 0.0, 1.756469469087939E9, 0.0, 2025-08-29 09:11:09.087
75.0, -7236.345513914246, -1152.6016372940503, -609.0670171338134, -3560.859725111164, 0.0, 0.04800000227987766, 0.9600000455975533, 0.0, 0.0, 0.0, 0.0, 0.0, 1.756469469088624E9, 0.0, 2025-08-29 09:11:09.088
75.0, -7447.133755216841, -982.6063547581434, -684.8373902360909, -3585.9993326133117, 0.0, 0.04800000227987766, 0.9600000455975533, 0.0, 0.0, 0.0, 0.0, 0.0, 1.756469469088624E9, 0.0, 2025-08-29 09:11:09.088
76.0, -7384.2398576620035, -1068.2855927930214, -805.5239618062042, -3447.8829572997056, 0.0, 0.04800000227987766, 0.9600000455975533, 0.0, 0.0, 0.0, 0.0, 0.0, 1.7564694691022031E9, 0.0, 2025-08-29 09:11:09.102
76.0, -7193.310485124122, -940.302476409357, -617.7809840305708, -3478.136877991259, 0.0, 0.04800000227987766, 0.9600000455975533, 0.0, 0.0, 0.0, 0.0, 0.0, 1.7564694691022031E9, 0.0, 2025-08-29 09:11:09.102
77.0, -7386.289322837722, -1184.4057465172373, -393.0111267436296, -3380.396462599281, 0.0, 0.04800000227987766, 0.9600000455975533, 0.0, 0.0, 0.0, 0.0, 0.0, 1.7564694691179788E9, 0.0, 2025-08-29 09:11:09.117
77.0, -7460.6796728563495, -1280.1845843824558, -303.03100375970826, -3491.972637877334, 0.0, 0.04800000227987766, 0.9600000455975533, 0.0, 0.0, 0.0, 0.0, 0.0, 1.7564694691179788E9, 0.0, 2025-08-29 09:11:09.117
78.0, -7682.035001483746, -1377.5510097788647, -131.73984588915482, -3370.294992818963, 0.0, 0.04800000227987766, 0.9600000455975533, 0.0, 0.0, 0.0, 0.0, 0.0, 1.7564694691186535E9, 0.0, 2025-08-29 09:11:09.118
78.0, -7802.407421457581, -1313.5444919872098, -4.414951897691935, -3493.7173012066633, 0.0, 0.04800000227987766, 0.9600000455975533, 0.0, 0.0, 0.0, 0.0, 0.0, 1.7564694691186535E9, 0.0, 2025-08-29 09:11:09.118
79.0, -7973.436786331236, -1420.9843379142694, -132.3756288816221, -3403.6100216242485, 0.0, 0.04800000227987766, 0.9600000455975533, 0.0, 0.0, 0.0, 0.0, 0.0, 1.756469469132193E9, 0.0, 2025-08-29 09:11:09.132
79.0, -7753.725143734366, -1617.431932836771, -293.1819772263989, -3448.445812243037, 0.0, 0.04800000227987766, 0.9600000455975533, 0.0, 0.0, 0.0, 0.0, 0.0, 1.756469469132193E9, 0.0, 2025-08-29 09:11:09.132
80.0, -7723.222519695759, -1558.6033065337688, -397.15306594455615, -3348.8036577235907, 0.0, 0.04800000227987766, 0.9600000455975533, 0.0, 0.0, 0.0, 0.0, 0.0, 1.7564694691480093E9, 0.0, 2025-08-29 09:11:09.148
80.0, -7937.803019553423, -1381.1955422856845, -468.843208195176, -3377.193238287233, 0.0, 0.04800000227987766, 0.9600000455975533, 0.0, 0.0, 0.0, 0.0, 0.0, 1.7564694691480093E9, 0.0, 2025-08-29 09:11:09.148
81.0, -7865.133023514412, -1490.290293943137, -625.2757435417734, -3271.6887905872427, 0.0, 0.04800000227987766, 0.9600000455975533, 0.0, 0.0, 0.0, 0.0, 0.0, 1.756469469148662E9, 0.0, 2025-08-29 09:11:09.148
81.0, -7677.83135393355, -1351.8878162829205, -461.2474713851698, -3342.6066434970126, 0.0, 0.04800000227987766, 0.9600000455975533, 0.0, 0.0, 0.0, 0.0, 0.0, 1.756469469148662E9, 0.0, 2025-08-29 09:11:09.148
82.0, -7870.424981951714, -1119.6605984843336, -221.08044598065317, -3203.6824497929774, 0.0, 0.04800000227987766, 0.9600000455975533, 0.0, 0.0, 0.0, 0.0, 0.0, 1.7564694691621845E9, 0.0, 2025-08-29 09:11:09.162
82.0, -7961.20731347613, -1250.0596902393736, -126.64610214950517, -3315.6026958669536, 0.0, 0.04800000227987766, 0.9600000455975533, 0.0, 0.0, 0.0, 0.0, 0.0, 1.7564694691621845E9, 0.0, 2025-08-29 09:11:09.162
83.0, -8164.6560011156835, -1345.3616908602417, -8.001515955198556, -3243.441326221917, 0.0, 0.04800000227987766, 0.9600000455975533, 0.0, 0.0, 0.0, 0.0, 0.0, 1.7564694691942897E9, 0.0, 2025-08-29 09:11:09.194
83.0, -8288.424250249285, -1269.1257002134807, 166.94352417206392, -3332.2022418202832, 0.0, 0.04800000227987766, 0.9600000455975533, 0.0, 0.0, 0.0, 0.0, 0.0, 1.7564694691942897E9, 0.0, 2025-08-29 09:11:09.194
84.0, -8466.140556243714, -1387.1793822147883, 22.646964181680232, -3267.4327844376676, 0.0, 0.04800000227987766, 0.9600000455975533, 0.0, 0.0, 0.0, 0.0, 0.0, 1.7564694691949935E9, 0.0, 2025-08-29 09:11:09.194
84.0, -8246.260618148837, -1613.1796665871516, -180.0500035667792, -3335.351237582974, 0.0, 0.04800000227987766, 0.9600000455975533, 0.0, 0.0, 0.0, 0.0, 0.0, 1.7564694691949935E9, 0.0, 2025-08-29 09:11:09.194
85.0, -8212.152730552945, -1524.7684316346422, -248.55188110517338, -3213.385620228015, 0.0, 0.04800000227987766, 0.9600000455975533, 0.0, 0.0, 0.0, 0.0, 0.0, 1.7564694691957397E9, 0.0, 2025-08-29 09:11:09.195
85.0, -8429.115546682384, -1358.8309405506589, -325.8780525890179, -3240.1296448111534, 0.0, 0.04800000227987766, 0.9600000455975533, 0.0, 0.0, 0.0, 0.0, 0.0, 1.7564694691957397E9, 0.0, 2025-08-29 09:11:09.195
86.0, -8355.274961957242, -1491.9620292233303, -496.8176598637365, -3152.4271209002472, 0.0, 0.04800000227987766, 0.9600000455975533, 0.0, 0.0, 0.0, 0.0, 0.0, 1.7564694691964948E9, 0.0, 2025-08-29 09:11:09.196
86.0, -8159.27054517949, -1361.506838968955, -333.8776985942386, -3200.2436117837206, 0.0, 0.04800000227987766, 0.9600000455975533, 0.0, 0.0, 0.0, 0.0, 0.0, 1.7564694691964948E9, 0.0, 2025-08-29 09:11:09.196
87.0, -8362.481749171857, -1603.841136397794, -566.0731272432022, -3067.714647003915, 0.0, 0.04800000227987766, 0.9600000455975533, 0.0, 0.0, 0.0, 0.0, 0.0, 1.7564694692072124E9, 0.0, 2025-08-29 09:11:09.207
87.0, -8443.985388906207, -1723.226222783327, -513.5443624155596, -3221.5666513810866, 0.0, 0.04800000227987766, 0.9600000455975533, 0.0, 0.0, 0.0, 0.0, 0.0, 1.7564694692072124E9, 0.0, 2025-08-29 09:11:09.207
88.0, -8660.486327391118, -1834.9650837094523, -382.56558616738766, -3131.988567642402, 0.0, 0.04800000227987766, 0.9600000455975533, 0.0, 0.0, 0.0, 0.0, 0.0, 1.7564694692386577E9, 0.0, 2025-08-29 09:11:09.238
88.0, -8776.804695812985, -1758.542098064907, -242.83170412294567, -3241.06087990012, 0.0, 0.04800000227987766, 0.9600000455975533, 0.0, 0.0, 0.0, 0.0, 0.0, 1.7564694692386577E9, 0.0, 2025-08-29 09:11:09.238
89.0, -8956.413391184993, -1880.6273922184482, -393.343977839686, -3187.829013880808, 0.0, 0.04800000227987766, 0.9600000455975533, 0.0, 0.0, 0.0, 0.0, 0.0, 1.7564694692393377E9, 0.0, 2025-08-29 09:11:09.239
89.0, -8731.641663948074, -2102.9064761349, -614.703046367038, -3277.3117301706225, 0.0, 0.04800000227987766, 0.9600000455975533, 0.0, 0.0, 0.0, 0.0, 0.0, 1.7564694692393377E9, 0.0, 2025-08-29 09:11:09.239
90.0, -8702.32458819542, -2039.5824900851585, -709.3169053960592, -3178.0173863470554, 0.0, 0.04800000227987766, 0.9760000463575125, 0.0, 0.0, 0.0, 0.0, 0.0, 1.7564694692401006E9, 0.0, 2025-08-29 09:11:09.240
90.0, -8919.623995320871, -1858.389947081916, -774.8212531199679, -3188.6274825213477, 0.0, 0.04800000227987766, 0.9760000463575125, 0.0, 0.0, 0.0, 0.0, 0.0, 1.7564694692401006E9, 0.0, 2025-08-29 09:11:09.240
91.0, -8845.521617598832, -2006.4993350771256, -994.2748426198959, -3162.824042777065, 0.0, 0.04800000227987766, 0.9760000463575125, 0.0, 0.0, 0.0, 0.0, 0.0, 1.756469469252304E9, 0.0, 2025-08-29 09:11:09.252
91.0, -8654.521186961792, -1886.3961879001, -844.892018689774, -3215.0910146078095, 0.0, 0.04800000227987766, 0.9760000463575125, 0.0, 0.0, 0.0, 0.0, 0.0, 1.756469469252304E9, 0.0, 2025-08-29 09:11:09.252
92.0, -8847.68327977322, -2109.5111394566484, -1072.1806985968724, -3080.972592346836, 0.01600000075995922, 0.04800000227987766, 0.9760000463575125, 0.0, 0.0, 0.0, 0.0, 0.0, 1.7564694692679057E9, 0.0, 2025-08-29 09:11:09.267
92.0, -8935.077261937782, -2237.4269376411103, -1051.2279090951197, -3252.9743312089704, 0.01600000075995922, 0.04800000227987766, 0.9760000463575125, 0.0, 0.0, 0.0, 0.0, 0.0, 1.7564694692679057E9, 0.0, 2025-08-29 09:11:09.267
93.0, -9150.50484913541, -2358.7623818535358, -930.0701101305895, -3189.6054663597606, 0.01600000075995922, 0.04800000227987766, 0.9760000463575125, 0.0, 0.0, 0.0, 0.0, 0.0, 1.7564694692686307E9, 0.0, 2025-08-29 09:11:09.268
93.0, -9268.199500740971, -2253.01110075647, -775.3392292638309, -3287.1065281545743, 0.01600000075995922, 0.04800000227987766, 0.9760000463575125, 0.0, 0.0, 0.0, 0.0, 0.0, 1.7564694692686307E9, 0.0, 2025-08-29 09:11:09.268
94.0, -9440.406934100669, -2372.7701771375723, -931.9699793080799, -3233.8447429356165, 0.01600000075995922, 0.04800000227987766, 0.9760000463575125, 0.0, 0.0, 0.0, 0.0, 0.0, 1.7564694692822437E9, 0.0, 2025-08-29 09:11:09.282
94.0, -9222.868173378054, -2607.95565580111, -688.9176210877486, -3349.847089811228, 0.01600000075995922, 0.04800000227987766, 0.9760000463575125, 0.0, 0.0, 0.0, 0.0, 0.0, 1.7564694692822437E9, 0.0, 2025-08-29 09:11:09.282
95.0, -9185.607550119516, -2526.089245771058, -775.9320034068078, -3240.6457510050386, 0.01600000075995922, 0.04800000227987766, 0.9760000463575125, 0.0, 0.0, 0.0, 0.0, 0.0, 1.7564694692979088E9, 0.0, 2025-08-29 09:11:09.297
95.0, -9396.26489492366, -2332.876664310228, -838.3509336672723, -3247.119517828338, 0.01600000075995922, 0.04800000227987766, 0.9760000463575125, 0.0, 0.0, 0.0, 0.0, 0.0, 1.7564694692979088E9, 0.0, 2025-08-29 09:11:09.297
96.0, -9338.44230170874, -2495.0405963389203, -1074.1665854733437, -3235.7633116128854, 0.01600000075995922, 0.04800000227987766, 0.9760000463575125, 0.0, 0.0, 0.0, 0.0, 0.0, 1.7564694692986543E9, 0.0, 2025-08-29 09:11:09.298
96.0, -9148.88173255464, -2358.2200963599607, -903.8328419914469, -3268.0367782805115, 0.01600000075995922, 0.04800000227987766, 0.9760000463575125, 0.0, 0.0, 0.0, 0.0, 0.0, 1.7564694692986543E9, 0.0, 2025-08-29 09:11:09.298
97.0, -9333.288719569799, -2561.4948786515743, -1113.865623502992, -3121.78612056328, 0.01600000075995922, 0.04800000227987766, 0.9760000463575125, 0.0, 0.0, 0.0, 0.0, 0.0, 1.756469469312232E9, 0.0, 2025-08-29 09:11:09.312
97.0, -9421.094090729486, -2727.0004112906754, -1111.0289093866013, -3314.136655084323, 0.01600000075995922, 0.04800000227987766, 0.9760000463575125, 0.0, 0.0, 0.0, 0.0, 0.0, 1.756469469312232E9, 0.0, 2025-08-29 09:11:09.312
98.0, -9648.309842587449, -2848.3882141024806, -1019.1208679755218, -3266.5052892486565, 0.01600000075995922, 0.04800000227987766, 0.9760000463575125, 0.0, 0.0, 0.0, 0.0, 0.0, 1.756469469327928E9, 0.0, 2025-08-29 09:11:09.327
98.0, -9756.015221411362, -2706.898449028842, -810.5990060460754, -3326.442795888521, 0.01600000075995922, 0.04800000227987766, 0.9760000463575125, 0.0, 0.0, 0.0, 0.0, 0.0, 1.756469469327928E9, 0.0, 2025-08-29 09:11:09.327
99.0, -9935.347164186649, -2839.481642358005, -957.3676399071701, -3259.7659895285033, 0.01600000075995922, 0.04800000227987766, 0.9760000463575125, 0.0, 0.0, 0.0, 0.0, 0.0, 1.7564694693286407E9, 0.0, 2025-08-29 09:11:09.328
99.0, -9712.47530612722, -2604.5972256409004, -736.0441004293971, -3396.25924826134, 0.01600000075995922, 0.04800000227987766, 0.9760000463575125, 0.0, 0.0, 0.0, 0.0, 0.0, 1.7564694693286407E9, 0.0, 2025-08-29 09:11:09.328
100.0, -9680.267287708819, -2502.2249441538006, -796.0003065690398, -3262.0678979512304, 0.01600000075995922, 0.04800000227987766, 0.9760000463575125, 0.0, 0.0, 0.0, 0.0, 0.0, 1.7564694693429773E9, 0.0, 2025-08-29 09:11:09.342
100.0, -9888.815328937955, -2306.925498517696, -826.6413069060072, -3244.884927604813, 0.01600000075995922, 0.04800000227987766, 0.9760000463575125, 0.0, 0.0, 0.0, 0.0, 0.0, 1.7564694693429773E9, 0.0, 2025-08-29 09:11:09.342
0.0, -16.842639450449497, -1510.394126154948, -3525.8916605254635, -3235.4248506668955, 0.01600000075995922, 0.04800000227987766, 0.9760000463575125, 0.0, 0.0, 0.0, 0.0, 0.0, 1.7564694693436635E9, 0.0, 2025-08-29 09:11:09.343
1.0, 166.81636757357046, -1364.7736415802501, -3364.9824649319053, -3275.4174708430655, 0.01600000075995922, 0.04800000227987766, 0.9760000463575125, 0.0, 0.0, 0.0, 0.0, 0.0, 1.7564694693572288E9, 0.0, 2025-08-29 09:11:09.357
1.0, -20.76579450396821, -1547.6809287131764, -3547.9645500639454, -3097.022373006679, 0.01600000075995922, 0.04800000227987766, 0.9760000463575125, 0.0, 0.0, 0.0, 0.0, 0.0, 1.7564694693572288E9, 0.0, 2025-08-29 09:11:09.357
2.0, -110.56453234003857, -1714.3233909388073, -3552.070960215293, -3298.8423342155293, 0.0, 0.04800000227987766, 0.9760000463575125, 0.0, 0.0, 0.0, 0.0, 0.0, 1.7564694693726397E9, 0.0, 2025-08-29 09:11:09.372
2.0, -325.5695108426735, -1827.5582118472084, -3441.9720454197377, -3246.4575555361807, 0.0, 0.04800000227987766, 0.9760000463575125, 0.0, 0.0, 0.0, 0.0, 0.0, 1.7564694693726397E9, 0.0, 2025-08-29 09:11:09.372
3.0, -442.3890258586034, -1685.7131562777795, -3219.148806059733, -3279.280787497293, 0.0, 0.04800000227987766, 0.9760000463575125, 0.0, 0.0, 0.0, 0.0, 0.0, 1.7564694693879757E9, 0.0, 2025-08-29 09:11:09.387
3.0, -611.3764053564519, -1823.883760140743, -3351.9638731861487, -3209.4811646742746, 0.0, 0.04800000227987766, 0.9760000463575125, 0.0, 0.0, 0.0, 0.0, 0.0, 1.7564694693879757E9, 0.0, 2025-08-29 09:11:09.387
4.0, -400.6068635536358, -1615.3955573108979, -3158.1024190830067, -3377.333484535571, 0.0, 0.04800000227987766, 0.9760000463575125, 0.0, 0.0, 0.0, 0.0, 0.0, 1.7564694693886814E9, 0.0, 2025-08-29 09:11:09.388
4.0, -373.15973777882755, -1488.3661154159345, -3188.2815417754464, -3208.4321227367036, 0.0, 0.04800000227987766, 0.9760000463575125, 0.0, 0.0, 0.0, 0.0, 0.0, 1.7564694693886814E9, 0.0, 2025-08-29 09:11:09.388
5.0, -574.8824615888298, -1286.4807059578598, -3194.0447276071645, -3167.975754966028, 0.0, 0.04800000227987766, 0.9760000463575125, 0.0, 0.0, 0.0, 0.0, 0.0, 1.756469469402979E9, 0.0, 2025-08-29 09:11:09.402
5.0, -508.45061867590994, -1485.9164809449576, -2988.4231580933556, -3191.7278595846146, 0.0, 0.04800000227987766, 0.9760000463575125, 0.0, 0.0, 0.0, 0.0, 0.0, 1.756469469402979E9, 0.0, 2025-08-29 09:11:09.402
6.0, -333.58785634767264, -1320.1341957091354, -2801.420680508949, -3208.873430931475, 0.0, 0.04800000227987766, 0.9760000463575125, 0.0, 0.0, 0.0, 0.0, 0.0, 1.756469469403694E9, 0.0, 2025-08-29 09:11:09.403
6.0, -505.26048401370645, -1492.5735028660856, -2945.4554475024343, -3002.4739622268826, 0.0, 0.04800000227987766, 0.9760000463575125, 0.0, 0.0, 0.0, 0.0, 0.0, 1.756469469403694E9, 0.0, 2025-08-29 09:11:09.403
7.0, -590.3880868051201, -1687.3774117580615, -2966.567182752304, -3229.3811723385006, 0.0, 0.04800000227987766, 0.9760000463575125, 0.0, 0.0, 0.0, 0.0, 0.0, 1.7564694694172077E9, 0.0, 2025-08-29 09:11:09.417
7.0, -819.6907028383575, -1813.6233446123078, -2875.6315153297037, -3176.65980266314, 0.0, 0.04800000227987766, 0.9760000463575125, 0.0, 0.0, 0.0, 0.0, 0.0, 1.7564694694172077E9, 0.0, 2025-08-29 09:11:09.417
8.0, -930.4889789256267, -1628.818058251869, -3087.521157169249, -3166.442395984195, 0.0, 0.04800000227987766, 0.9760000463575125, 0.0, 0.0, 0.0, 0.0, 0.0, 1.7564694694330292E9, 0.0, 2025-08-29 09:11:09.433
8.0, -1096.8883476541378, -1794.5629444881342, -3242.581149232108, -3123.30451994529, 0.0, 0.04800000227987766, 0.9760000463575125, 0.0, 0.0, 0.0, 0.0, 0.0, 1.7564694694330292E9, 0.0, 2025-08-29 09:11:09.433
9.0, -893.1685172677971, -1587.7726562381722, -3069.7753318795003, -3293.4493984794244, 0.0, 0.04800000227987766, 0.9760000463575125, 0.0, 0.0, 0.0, 0.0, 0.0, 1.7564694694336784E9, 0.0, 2025-08-29 09:11:09.433
9.0, -862.897767026443, -1423.8678007801063, -3060.758433086332, -3093.222634651698, 0.0, 0.04800000227987766, 0.9760000463575125, 0.0, 0.0, 0.0, 0.0, 0.0, 1.7564694694336784E9, 0.0, 2025-08-29 09:11:09.433
10.0, -1055.289440446999, -1233.0412754910067, -3069.9922460769303, -3058.6790487109683, 0.0, 0.04800000227987766, 0.9760000463575125, 0.0, 0.0, 0.0, 0.0, 0.0, 1.756469469447238E9, 0.0, 2025-08-29 09:11:09.447
10.0, -1000.5111257960089, -1455.8514252011664, -2889.4317461661994, -3117.4740159143694, 0.0, 0.04800000227987766, 0.9760000463575125, 0.0, 0.0, 0.0, 0.0, 0.0, 1.756469469447238E9, 0.0, 2025-08-29 09:11:09.447
11.0, -822.4544889056124, -1280.7306097759865, -2691.243227814324, -3124.1777865849435, 0.0, 0.04800000227987766, 0.9760000463575125, 0.0, 0.0, 0.0, 0.0, 0.0, 1.756469469463009E9, 0.0, 2025-08-29 09:11:09.463
11.0, -1004.0490711540915, -1438.9807365010493, -2807.3334623388946, -2879.36580543546, 0.0, 0.04800000227987766, 0.9760000463575125, 0.0, 0.0, 0.0, 0.0, 0.0, 1.756469469463009E9, 0.0, 2025-08-29 09:11:09.463
12.0, -1071.9656543494202, -1646.328269844409, -2849.3287989413366, -2638.708853136748, 0.0, 0.04800000227987766, 0.9760000463575125, 0.0, 0.0, 0.0, 0.0, 0.0, 1.7564694694636896E9, 0.0, 2025-08-29 09:11:09.463
12.0, -1305.4232992334291, -1772.6116016982123, -2757.0916463341564, -2583.8146015871316, 0.0, 0.04800000227987766, 0.9760000463575125, 0.0, 0.0, 0.0, 0.0, 0.0, 1.7564694694636896E9, 0.0, 2025-08-29 09:11:09.463
13.0, -1420.3205056721345, -1591.3779197954573, -2960.86944516981, -2558.132708591409, 0.0, 0.04800000227987766, 0.9760000463575125, 0.0, 0.0, 0.0, 0.0, 0.0, 1.7564694694772353E9, 0.0, 2025-08-29 09:11:09.477
13.0, -1584.5619521262124, -1755.4398510516621, -3139.172915457282, -2538.485144174192, 0.0, 0.04800000227987766, 0.9760000463575125, 0.0, 0.0, 0.0, 0.0, 0.0, 1.7564694694772353E9, 0.0, 2025-08-29 09:11:09.477
14.0, -1387.787115957588, -1557.0381584023125, -2987.2544393572025, -2736.9597648726776, 0.0, 0.04800000227987766, 0.9760000463575125, 0.0, 0.0, 0.0, 0.0, 0.0, 1.7564694694930184E9, 0.0, 2025-08-29 09:11:09.493
14.0, -1365.269178324379, -1397.0826372974552, -2966.4755552033894, -2519.1367717534304, 0.0, 0.04800000227987766, 0.9760000463575125, 0.0, 0.0, 0.0, 0.0, 0.0, 1.7564694694930184E9, 0.0, 2025-08-29 09:11:09.493
15.0, -1546.889939872548, -1203.043537946418, -2978.7012881585397, -2488.867891462054, 0.0, 0.04800000227987766, 0.9760000463575125, 0.0, 0.0, 0.0, 0.0, 0.0, 1.7564694694937243E9, 0.0, 2025-08-29 09:11:09.493
15.0, -1484.729062709026, -1434.713510651607, -2830.3824657658115, -2562.439203390386, 0.0, 0.04800000227987766, 0.9760000463575125, 0.0, 0.0, 0.0, 0.0, 0.0, 1.7564694694937243E9, 0.0, 2025-08-29 09:11:09.493
16.0, -1311.4295785622671, -1263.743984177243, -2631.8910155175254, -2572.3592880228534, 0.0, 0.04800000227987766, 0.9760000463575125, 0.0, 0.0, 0.0, 0.0, 0.0, 1.7564694695072887E9, 0.0, 2025-08-29 09:11:09.507
16.0, -1486.9019445832819, -1422.7907095928676, -2749.813801020384, -2334.193109094631, 0.0, 0.04800000227987766, 0.9760000463575125, 0.0, 0.0, 0.0, 0.0, 0.0, 1.7564694695072887E9, 0.0, 2025-08-29 09:11:09.507
17.0, -1564.497388863936, -1648.6844068164937, -2823.295355349779, -2120.7626284733415, 0.0, 0.04800000227987766, 0.9760000463575125, 0.0, 0.0, 0.0, 0.0, 0.0, 1.7564694695230296E9, 0.0, 2025-08-29 09:11:09.523
17.0, -1808.4267536238767, -1773.954225782305, -2754.866405860521, -2092.328169110231, 0.0, 0.04800000227987766, 0.9760000463575125, 0.0, 0.0, 0.0, 0.0, 0.0, 1.7564694695230296E9, 0.0, 2025-08-29 09:11:09.523
18.0, -1913.6114398776554, -1581.5083238123916, -2931.047482923139, -2042.6248986991122, 0.0, 0.04800000227987766, 0.9760000463575125, 0.0, 0.0, 0.0, 0.0, 0.0, 1.7564694695236907E9, 0.0, 2025-08-29 09:11:09.523
18.0, -2075.687484257389, -1752.0664612916298, -3112.5747469724156, -2029.9372880994342, 0.0, 0.04800000227987766, 0.9760000463575125, 0.0, 0.0, 0.0, 0.0, 0.0, 1.7564694695236907E9, 0.0, 2025-08-29 09:11:09.523
19.0, -1872.0125326705165, -1552.6475158543326, -2980.036432442721, -2243.4163874201477, 0.0, 0.04800000227987766, 0.9760000463575125, 0.0, 0.0, 0.0, 0.0, 0.0, 1.7564694695372884E9, 0.0, 2025-08-29 09:11:09.537
19.0, -1862.068138688337, -1384.022906652186, -2946.5044894400053, -2000.0461377035826, 0.0, 0.04800000227987766, 0.9760000463575125, 0.0, 0.0, 0.0, 0.0, 0.0, 1.7564694695372884E9, 0.0, 2025-08-29 09:11:09.537
20.0, -2032.8207509652711, -1204.1692478330806, -2940.1335698654875, -1952.4353413176723, 0.0, 0.04800000227987766, 0.9760000463575125, 0.0, 0.0, 0.0, 0.0, 0.0, 1.7564694695529935E9, 0.0, 2025-08-29 09:11:09.552
20.0, -1970.5551566029899, -968.5031920252368, -2821.558171820361, -2066.760343063157, 0.0, 0.04800000227987766, 0.9760000463575125, 0.0, 0.0, 0.0, 0.0, 0.0, 1.7564694695529935E9, 0.0, 2025-08-29 09:11:09.552
21.0, -1809.5300241108052, -771.3431461611763, -2625.119926647749, -2072.4356412459165, 0.0, 0.04800000227987766, 0.9760000463575125, 0.0, 0.0, 0.0, 0.0, 0.0, 1.7564694695537093E9, 0.0, 2025-08-29 09:11:09.553
21.0, -1978.4351258096285, -925.0979131394997, -2716.6539780632593, -2297.3532245811075, 0.0, 0.04800000227987766, 0.9760000463575125, 0.0, 0.0, 0.0, 0.0, 0.0, 1.7564694695537093E9, 0.0, 2025-08-29 09:11:09.553
22.0, -2049.3885077689774, -1154.896065916866, -2790.7638355852105, -2097.8576111947186, 0.0, 0.04800000227987766, 0.9760000463575125, 0.0, 0.0, 0.0, 0.0, 0.0, 1.7564694695672655E9, 0.0, 2025-08-29 09:11:09.567
22.0, -1810.7230521966703, -1279.5749806896783, -2735.316078842152, -2082.6773572745733, 0.0, 0.04800000227987766, 0.9760000463575125, 0.0, 0.0, 0.0, 0.0, 0.0, 1.7564694695672655E9, 0.0, 2025-08-29 09:11:09.567
23.0, -1907.6537792482413, -1084.6532649490982, -2910.5846203155816, -2035.63315573195, 0.0, 0.04800000227987766, 0.9760000463575125, 0.0, 0.0, 0.0, 0.0, 0.0, 1.7564694695831017E9, 0.0, 2025-08-29 09:11:09.583
23.0, -2062.938165308442, -1261.8235455499962, -3103.997286424041, -2019.1719860769808, 0.0, 0.04800000227987766, 0.9760000463575125, 0.0, 0.0, 0.0, 0.0, 0.0, 1.7564694695831017E9, 0.0, 2025-08-29 09:11:09.583
24.0, -1870.0079462942667, -1081.1414988907054, -2977.9701377172023, -2250.0977186909877, 0.0, 0.04800000227987766, 0.9760000463575125, 0.0, 0.0, 0.0, 0.0, 0.0, 1.7564694695836833E9, 0.0, 2025-08-29 09:11:09.583
24.0, -1846.173563876655, -905.9159662667662, -2956.447013472207, -2029.1780884084292, 0.0, 0.04800000227987766, 0.9760000463575125, 0.0, 0.0, 0.0, 0.0, 0.0, 1.7564694695836833E9, 0.0, 2025-08-29 09:11:09.583
25.0, -2032.4430210697465, -703.1778596187942, -2956.0075752274133, -1983.4783808998764, 0.0, 0.04800000227987766, 0.9760000463575125, 0.0, 0.0, 0.0, 0.0, 0.0, 1.7564694695972967E9, 0.0, 2025-08-29 09:11:09.597
25.0, -1979.4822977972217, -479.9469711636193, -2848.0983718559146, -2094.48983128462, 0.0, 0.04800000227987766, 0.9760000463575125, 0.0, 0.0, 0.0, 0.0, 0.0, 1.7564694695972967E9, 0.0, 2025-08-29 09:11:09.597
26.0, -1807.1140487394296, -292.24513228749856, -2650.8635279927403, -2104.510893215891, 0.0, 0.04800000227987766, 0.9760000463575125, 0.0, 0.0, 0.0, 0.0, 0.0, 1.756469469613028E9, 0.0, 2025-08-29 09:11:09.613
26.0, -1974.8336021522991, -441.50827941903844, -2751.575293899514, -2337.1177108599804, 0.0, 0.04800000227987766, 0.9760000463575125, 0.0, 0.0, 0.0, 0.0, 0.0, 1.756469469613028E9, 0.0, 2025-08-29 09:11:09.613
27.0, -2066.9473380609415, -203.69739098660648, -2842.3613653238863, -2146.878349863924, 0.0, 0.04800000227987766, 0.9760000463575125, 0.0, 0.0, 0.0, 0.0, 0.0, 1.7564694696136951E9, 0.0, 2025-08-29 09:11:09.613
27.0, -2303.4305620091036, -337.7372753485106, -2801.2075062114745, -2142.9925938099623, 0.0, 0.04800000227987766, 0.9760000463575125, 0.0, 0.0, 0.0, 0.0, 0.0, 1.7564694696136951E9, 0.0, 2025-08-29 09:11:09.613
28.0, -2398.8428896786645, -115.3534742332995, -2956.759295118507, -2074.0662376265973, 0.0, 0.04800000227987766, 0.9760000463575125, 0.0, 0.0, 0.0, 0.0, 0.0, 1.7564694696272717E9, 0.0, 2025-08-29 09:11:09.627
28.0, -2571.6711464310065, -298.6272715618834, -3141.502873129677, -2058.6148409596644, 0.0, 0.04800000227987766, 0.9760000463575125, 0.0, 0.0, 0.0, 0.0, 0.0, 1.7564694696272717E9, 0.0, 2025-08-29 09:11:09.627
29.0, -2368.7516546351835, -132.75522872712463, -3039.8000337346457, -1818.6591199026443, 0.0, 0.04800000227987766, 0.9760000463575125, 0.0, 0.0, 0.0, 0.0, 0.0, 1.7564694696430013E9, 0.0, 2025-08-29 09:11:09.643
29.0, -2340.6537862680852, 54.00041546020657, -2999.5549703114666, -1579.006330742035, 0.0, 0.04800000227987766, 0.9760000463575125, 0.0, 0.0, 0.0, 0.0, 0.0, 1.7564694696430013E9, 0.0, 2025-08-29 09:11:09.643
30.0, -2520.045567442663, 251.40916467132047, -2983.5164093514904, -1512.7970118764788, 0.0, 0.04800000227987766, 0.9760000463575125, 0.0, 0.0, 0.0, 0.0, 0.0, 1.7564694696436286E9, 0.0, 2025-08-29 09:11:09.643
30.0, -2467.6495690634474, 459.89362760121, -2897.250007023569, -1649.1462844610214, 0.0, 0.04800000227987766, 0.9760000463575125, 0.0, 0.0, 0.0, 0.0, 0.0, 1.7564694696436286E9, 0.0, 2025-08-29 09:11:09.643
31.0, -2278.7060834020376, 662.4802683009766, -2692.8457749453373, -1657.7948031085543, 0.0, 0.04800000227987766, 0.9760000463575125, 0.0, 0.0, 0.0, 0.0, 0.0, 1.7564694696573188E9, 0.0, 2025-08-29 09:11:09.657
31.0, -2459.12633706443, 528.8349433843978, -2773.354601291474, -1860.5759186060168, 0.0, 0.04800000227987766, 0.9760000463575125, 0.0, 0.0, 0.0, 0.0, 0.0, 1.7564694696573188E9, 0.0, 2025-08-29 09:11:09.657
32.0, -2551.3859290713444, 767.2292562099174, -2870.2554091433994, -1683.10083615873, 0.0, 0.04800000227987766, 0.9760000463575125, 0.0, 0.0, 0.0, 0.0, 0.0, 1.7564694696729977E9, 0.0, 2025-08-29 09:11:09.672
32.0, -2787.97013031831, 628.6229540021159, -2843.7694376572035, -1689.0341874384321, 0.0, 0.04800000227987766, 0.9760000463575125, 0.0, 0.0, 0.0, 0.0, 0.0, 1.7564694696729977E9, 0.0, 2025-08-29 09:11:09.672
33.0, -2895.4024964454584, 862.3386519830674, -2969.9330927124247, -1593.6779582682066, 0.0, 0.04800000227987766, 0.9760000463575125, 0.0, 0.0, 0.0, 0.0, 0.0, 1.7564694696736665E9, 0.0, 2025-08-29 09:11:09.673
33.0, -3046.898363850545, 683.6985906995833, -3154.964643020183, -1570.4288701936603, 0.0, 0.04800000227987766, 0.9760000463575125, 0.0, 0.0, 0.0, 0.0, 0.0, 1.7564694696736665E9, 0.0, 2025-08-29 09:11:09.673
34.0, -2850.7742702742107, 837.1018070820719, -3083.682149864733, -1349.4755808115005, 0.0, 0.04800000227987766, 0.9760000463575125, 0.0, 0.0, 0.0, 0.0, 0.0, 1.7564694697036777E9, 0.0, 2025-08-29 09:11:09.703
34.0, -2840.818656592164, 1044.8831688202918, -3009.9612419381738, -1570.2362653459422, 0.0, 0.04800000227987766, 0.9760000463575125, 0.0, 0.0, 0.0, 0.0, 0.0, 1.7564694697036777E9, 0.0, 2025-08-29 09:11:09.703
35.0, -3014.2452973374166, 1248.343076159712, -2969.6731696655042, -1501.6184509089217, 0.0, 0.04800000227987766, 0.9760000463575125, 0.0, 0.0, 0.0, 0.0, 0.0, 1.7564694697044263E9, 0.0, 2025-08-29 09:11:09.704
35.0, -2946.6727849380113, 1449.7366887736134, -2898.291569161229, -1654.1839297013357, 0.0, 0.04800000227987766, 0.9760000463575125, 0.0, 0.0, 0.0, 0.0, 0.0, 1.7564694697044263E9, 0.0, 2025-08-29 09:11:09.704
36.0, -2786.002942941617, 1647.7830909271725, -2696.707221649587, -1653.2601744122803, 0.0, 0.04800000227987766, 0.9760000463575125, 0.0, 0.0, 0.0, 0.0, 0.0, 1.7564694697051792E9, 0.0, 2025-08-29 09:11:09.705
36.0, -2960.1663439781405, 1531.6105786035769, -2728.3355555748567, -1826.5409590592608, 0.0, 0.04800000227987766, 0.9760000463575125, 0.0, 0.0, 0.0, 0.0, 0.0, 1.7564694697051792E9, 0.0, 2025-08-29 09:11:09.705
37.0, -3037.2232426651753, 1755.9802665952593, -2841.2019963376224, -1662.791309449356, 0.0, 0.04800000227987766, 0.9760000463575125, 0.0, 0.0, 0.0, 0.0, 0.0, 1.756469469717258E9, 0.0, 2025-08-29 09:11:09.717
37.0, -3277.9250737633556, 1606.9733026106842, -2826.8819194072857, -1683.2429523570463, 0.0, 0.04800000227987766, 0.9760000463575125, 0.0, 0.0, 0.0, 0.0, 0.0, 1.756469469717258E9, 0.0, 2025-08-29 09:11:09.717
38.0, -3388.035208258778, 1375.896104048472, -2935.7672366672195, -1560.5630141105503, 0.0, 0.04800000227987766, 0.9760000463575125, 0.0, 0.0, 0.0, 0.0, 0.0, 1.756469469749309E9, 0.0, 2025-08-29 09:11:09.749
38.0, -3540.9784169467166, 1177.4345729998313, -3114.814947045874, -1538.9258229169063, 0.0, 0.04800000227987766, 0.9760000463575125, 0.0, 0.0, 0.0, 0.0, 0.0, 1.756469469749309E9, 0.0, 2025-08-29 09:11:09.749
39.0, -3355.0418108496815, 1326.2601518365555, -3059.8571171970107, -1341.029016761575, 0.0, 0.04800000227987766, 0.9760000463575125, 0.0, 0.0, 0.0, 0.0, 0.0, 1.7564694697500637E9, 0.0, 2025-08-29 09:11:09.750
39.0, -3328.4473822647706, 1553.8330641402863, -2983.809991498012, -1554.6240529809147, 0.0, 0.04800000227987766, 0.9760000463575125, 0.0, 0.0, 0.0, 0.0, 0.0, 1.7564694697500637E9, 0.0, 2025-08-29 09:11:09.750
40.0, -3506.90044855047, 1755.8979887962341, -2940.6309765595943, -1468.7989588477649, 0.0, 0.04800000227987766, 0.9760000463575125, 0.0, 0.0, 0.0, 0.0, 0.0, 1.7564694697508192E9, 0.0, 2025-08-29 09:11:09.750
40.0, -3450.0764086237177, 1933.9060069872066, -2893.708321765531, -1651.4930716832168, 0.0, 0.04800000227987766, 0.9760000463575125, 0.0, 0.0, 0.0, 0.0, 0.0, 1.7564694697508192E9, 0.0, 2025-08-29 09:11:09.750
41.0, -3279.477132244967, 2147.53283235617, -2684.0757095492445, -1639.5777504243888, 0.0, 0.04800000227987766, 0.9760000463575125, 0.0, 0.0, 0.0, 0.0, 0.0, 1.7564694697515771E9, 0.0, 2025-08-29 09:11:09.751
41.0, -3451.6733459047973, 2038.3015743503347, -2702.8088684272952, -1801.451840206515, 0.0, 0.04800000227987766, 0.9760000463575125, 0.0, 0.0, 0.0, 0.0, 0.0, 1.7564694697515771E9, 0.0, 2025-08-29 09:11:09.751
42.0, -3528.191698998213, 2247.431170022581, -2851.193139069248, -1648.9031909639016, 0.0, 0.04800000227987766, 0.9760000463575125, 0.0, 0.0, 0.0, 0.0, 0.0, 1.756469469762319E9, 0.0, 2025-08-29 09:11:09.762
42.0, -3283.531183796935, 2092.014017513953, -2853.8989566871896, -1688.7910939413123, 0.0, 0.04800000227987766, 0.9760000463575125, 0.0, 0.0, 0.0, 0.0, 0.0, 1.756469469762319E9, 0.0, 2025-08-29 09:11:09.762
43.0, -3399.239948526025, 1886.5177346486598, -2929.9666518359445, -1531.6666771029122, 0.0, 0.04800000227987766, 0.9760000463575125, 0.0, 0.0, 0.0, 0.0, 0.0, 1.7564694697772653E9, 0.0, 2025-08-29 09:11:09.777
43.0, -3541.868513136171, 1678.9196280082688, -3128.248667686712, -1529.8285162746906, 0.0, 0.04800000227987766, 0.9760000463575125, 0.0, 0.0, 0.0, 0.0, 0.0, 1.7564694697772653E9, 0.0, 2025-08-29 09:11:09.777
44.0, -3345.942634257488, 1796.4497240157798, -3066.1064900229685, -1345.6160040572286, 0.0, 0.04800000227987766, 0.9760000463575125, 0.0, 0.0, 0.0, 0.0, 0.0, 1.756469469793062E9, 0.0, 2025-08-29 09:11:09.793
44.0, -3318.90315757785, 2041.4169110134244, -2959.2986871884204, -1526.363498965744, 0.0, 0.04800000227987766, 0.9760000463575125, 0.0, 0.0, 0.0, 0.0, 0.0, 1.756469469793062E9, 0.0, 2025-08-29 09:11:09.793
45.0, -3502.053538207896, 2255.7561873239465, -2905.741449872963, -1433.2343802191317, 0.0, 0.04800000227987766, 0.9760000463575125, 0.0, 0.0, 0.0, 0.0, 0.0, 1.7564694697937293E9, 0.0, 2025-08-29 09:11:09.793
45.0, -3443.6400407999754, 2422.0732782534324, -2880.850545717869, -1636.3483468126506, 0.0, 0.04800000227987766, 0.9760000463575125, 0.0, 0.0, 0.0, 0.0, 0.0, 1.7564694697937293E9, 0.0, 2025-08-29 09:11:09.793
46.0, -3268.392068776302, 2639.1520312814973, -2666.0905306623317, -1629.395872795023, 0.0, 0.04800000227987766, 0.9760000463575125, 0.0, 0.0, 0.0, 0.0, 0.0, 1.7564694698073237E9, 0.0, 2025-08-29 09:11:09.807
46.0, -3442.4208334144205, 2549.7347632409073, -2657.9917773082852, -1749.6972346697003, 0.0, 0.04800000227987766, 0.9760000463575125, 0.0, 0.0, 0.0, 0.0, 0.0, 1.7564694698073237E9, 0.0, 2025-08-29 09:11:09.807
47.0, -3523.367228055373, 2723.795317028649, -2830.0196954701096, -1639.3122175275348, 0.0, 0.04800000227987766, 0.9760000463575125, 0.0, 0.0, 0.0, 0.0, 0.0, 1.7564694698230436E9, 0.0, 2025-08-29 09:11:09.823
47.0, -3279.4247736455873, 2586.99164659949, -2836.480372643564, -1678.6466153115034, 0.0, 0.04800000227987766, 0.9760000463575125, 0.0, 0.0, 0.0, 0.0, 0.0, 1.7564694698230436E9, 0.0, 2025-08-29 09:11:09.823
48.0, -3374.7249043164775, 2381.760896631051, -2883.0963556412607, -1501.4912943104282, 0.0, 0.04800000227987766, 0.9760000463575125, 0.0, 0.0, 0.0, 0.0, 0.0, 1.7564694698237095E9, 0.0, 2025-08-29 09:11:09.823
48.0, -3535.7799560083076, 2154.984583017882, -3097.617017099634, -1517.3148110229522, 0.0, 0.04800000227987766, 0.9760000463575125, 0.0, 0.0, 0.0, 0.0, 0.0, 1.7564694698237095E9, 0.0, 2025-08-29 09:11:09.823
49.0, -3348.8934153225273, 2272.7241134229116, -3103.707444177475, -1376.7207519887015, 0.0, 0.04800000227987766, 0.9760000463575125, 0.0, 0.0, 0.0, 0.0, 0.0, 1.7564694698372955E9, 0.0, 2025-08-29 09:11:09.837
49.0, -3322.882411130704, 2044.4985885769129, -2980.010253143031, -1549.0085931974463, 0.0, 0.04800000227987766, 0.9760000463575125, 0.0, 0.0, 0.0, 0.0, 0.0, 1.7564694698372955E9, 0.0, 2025-08-29 09:11:09.837
50.0, -3500.1536690304056, 2253.097118455451, -2924.930876545608, -1456.014110849239, 0.0, 0.04800000227987766, 0.9600000455975533, 0.0, 0.0, 0.0, 0.0, 0.0, 1.756469469853021E9, 0.0, 2025-08-29 09:11:09.853
50.0, -3454.392253172584, 2388.5899539501406, -2943.3648434272036, -1696.7851300965995, 0.0, 0.04800000227987766, 0.9600000455975533, 0.0, 0.0, 0.0, 0.0, 0.0, 1.756469469853021E9, 0.0, 2025-08-29 09:11:09.853
51.0, -3275.1014492968097, 2620.340334504377, -2722.097402448766, -1678.8373502092436, 0.0, 0.04800000227987766, 0.9600000455975533, 0.0, 0.0, 0.0, 0.0, 0.0, 1.7564694698537152E9, 0.0, 2025-08-29 09:11:09.853
51.0, -3452.0548157002777, 2531.188599360641, -2703.8822197145782, -1796.8050145115703, 0.0, 0.04800000227987766, 0.9600000455975533, 0.0, 0.0, 0.0, 0.0, 0.0, 1.7564694698537152E9, 0.0, 2025-08-29 09:11:09.853
52.0, -3526.418986419216, 2695.5702920630574, -2884.661503772717, -1691.1659304131754, 0.0, 0.04800000227987766, 0.9600000455975533, 0.0, 0.0, 0.0, 0.0, 0.0, 1.756469469867324E9, 0.0, 2025-08-29 09:11:09.867
52.0, -3282.188559712842, 2543.332054516766, -2908.0040893461555, -1748.145176188089, 0.0, 0.04800000227987766, 0.9600000455975533, 0.0, 0.0, 0.0, 0.0, 0.0, 1.756469469867324E9, 0.0, 2025-08-29 09:11:09.867
53.0, -3381.0902140410617, 2370.9712852588855, -2932.8351551019587, -1547.914672460407, 0.0, 0.04800000227987766, 0.9600000455975533, 0.0, 0.0, 0.0, 0.0, 0.0, 1.7564694698827624E9, 0.0, 2025-08-29 09:11:09.882
53.0, -3543.701064114459, 2145.129946634639, -3131.8464514440857, -1551.2656228207052, 0.0, 0.04800000227987766, 0.9600000455975533, 0.0, 0.0, 0.0, 0.0, 0.0, 1.7564694698827624E9, 0.0, 2025-08-29 09:11:09.882
54.0, -3352.3266434818506, 2249.645190796349, -3146.0188023261726, -1418.323399095796, 0.0, 0.04800000227987766, 0.9600000455975533, 0.0, 0.0, 0.0, 0.0, 0.0, 1.7564694698980296E9, 0.0, 2025-08-29 09:11:09.898
54.0, -3320.724488856271, 2029.9728171490133, -3012.792346204631, -1570.0679698479362, 0.0, 0.04800000227987766, 0.9600000455975533, 0.0, 0.0, 0.0, 0.0, 0.0, 1.7564694698980296E9, 0.0, 2025-08-29 09:11:09.898
55.0, -3498.111683654599, 2256.399450116325, -2929.2074521449395, -1448.414634139277, 0.0, 0.04800000227987766, 0.9600000455975533, 0.0, 0.0, 0.0, 0.0, 0.0, 1.7564694698986883E9, 0.0, 2025-08-29 09:11:09.898
55.0, -3451.9987172009423, 2361.0904695759527, -2971.015793749597, -1228.7572200917639, 0.0, 0.04800000227987766, 0.9600000455975533, 0.0, 0.0, 0.0, 0.0, 0.0, 1.7564694698986883E9, 0.0, 2025-08-29 09:11:09.898
56.0, -3270.8716224469244, 2123.6086923396215, -2748.390769087244, -1205.0462543726899, 0.0, 0.04800000227987766, 0.9600000455975533, 0.0, 0.0, 0.0, 0.0, 0.0, 1.7564694699130437E9, 0.0, 2025-08-29 09:11:09.913
56.0, -3441.366181626916, 2041.5590272117406, -2700.3311847066507, -1296.9804750834592, 0.0, 0.04800000227987766, 0.9600000455975533, 0.0, 0.0, 0.0, 0.0, 0.0, 1.7564694699130437E9, 0.0, 2025-08-29 09:11:09.913
57.0, -3533.6930918330327, 2191.949754179921, -2900.2250974383205, -1203.3464698428288, 0.0, 0.04800000227987766, 0.9600000455975533, 0.0, 0.0, 0.0, 0.0, 0.0, 1.7564694699137225E9, 0.0, 2025-08-29 09:11:09.913
57.0, -3773.0522988471203, 2032.5982269179076, -2937.992477140855, -1269.7577433059923, 0.0, 0.04800000227987766, 0.9600000455975533, 0.0, 0.0, 0.0, 0.0, 0.0, 1.7564694699137225E9, 0.0, 2025-08-29 09:11:09.913
58.0, -3871.2358923838474, 1868.9963033562526, -2941.1470827534795, -1051.1381514961831, 0.0, 0.04800000227987766, 0.9600000455975533, 0.0, 0.0, 0.0, 0.0, 0.0, 1.7564694699437003E9, 0.0, 2025-08-29 09:11:09.943
58.0, -4034.299270351883, 1636.681197908707, -3145.7906684288755, -1052.671510478016, 0.0, 0.04800000227987766, 0.9600000455975533, 0.0, 0.0, 0.0, 0.0, 0.0, 1.7564694699437003E9, 0.0, 2025-08-29 09:11:09.943
59.0, -3841.6345842345618, 1735.1265844423324, -3191.1724844411947, -954.9105256362818, 0.0, 0.04800000227987766, 0.9600000455975533, 0.0, 0.0, 0.0, 0.0, 0.0, 1.7564694699444072E9, 0.0, 2025-08-29 09:11:09.944
59.0, -3813.6077739666216, 1537.5532796331681, -3040.23012222955, -1097.4362429976463, 0.0, 0.04800000227987766, 0.9600000455975533, 0.0, 0.0, 0.0, 0.0, 0.0, 1.7564694699444072E9, 0.0, 2025-08-29 09:11:09.944
60.0, -3991.7653881558217, 1755.3519634027034, -2949.7974713509902, -974.3056468064897, 0.0, 0.04800000227987766, 0.9760000463575125, 0.0, 0.0, 0.0, 0.0, 0.0, 1.756469469945183E9, 0.0, 2025-08-29 09:11:09.945
60.0, -3941.8713828469627, 1866.9019593810663, -2999.4147240631282, -758.7022843109444, 0.0, 0.04800000227987766, 0.9760000463575125, 0.0, 0.0, 0.0, 0.0, 0.0, 1.756469469945183E9, 0.0, 2025-08-29 09:11:09.945
61.0, -3772.5174931534566, 2106.981097136624, -2788.1328159663826, -744.535543278791, 0.0, 0.04800000227987766, 0.9760000463575125, 0.0, 0.0, 0.0, 0.0, 0.0, 1.7564694699573116E9, 0.0, 2025-08-29 09:11:09.957
61.0, -3931.7512135668658, 2033.6005201060325, -2730.469168499578, -828.2232845872641, 0.0, 0.04800000227987766, 0.9760000463575125, 0.0, 0.0, 0.0, 0.0, 0.0, 1.7564694699573116E9, 0.0, 2025-08-29 09:11:09.957
62.0, -4024.650328466203, 2188.2023744243197, -2930.912846524734, -736.1675171279348, 0.0, 0.04800000227987766, 0.9760000463575125, 0.0, 0.0, 0.0, 0.0, 0.0, 1.7564694699730492E9, 0.0, 2025-08-29 09:11:09.973
62.0, -4257.423571658321, 2003.3035905649886, -3007.6948625650257, -856.6053853509948, 0.0, 0.04800000227987766, 0.9760000463575125, 0.0, 0.0, 0.0, 0.0, 0.0, 1.7564694699730492E9, 0.0, 2025-08-29 09:11:09.973
63.0, -4355.330412598327, 1875.2830751817673, -2992.798841041513, -1098.2272318382747, 0.0, 0.04800000227987766, 0.9760000463575125, 0.0, 0.0, 0.0, 0.0, 0.0, 1.7564694699736829E9, 0.0, 2025-08-29 09:11:09.973
63.0, -4524.774059890769, 1637.4703167993575, -3190.037424804643, -1104.2522106668912, 0.0, 0.04800000227987766, 0.9760000463575125, 0.0, 0.0, 0.0, 0.0, 0.0, 1.7564694699736829E9, 0.0, 2025-08-29 09:11:09.973
64.0, -4334.484210245311, 1704.7585968021303, -3261.8640734036453, -1019.5659160702489, 0.0, 0.04800000227987766, 0.9760000463575125, 0.0, 0.0, 0.0, 0.0, 0.0, 1.7564694699873202E9, 0.0, 2025-08-29 09:11:09.987
64.0, -4302.579123723321, 1509.006623271387, -3130.986274454277, -1179.7103021228686, 0.0, 0.04800000227987766, 0.9760000463575125, 0.0, 0.0, 0.0, 0.0, 0.0, 1.7564694699873202E9, 0.0, 2025-08-29 09:11:09.987
65.0, -4481.540816402994, 1734.6142181484029, -3013.8133388925344, -1033.3399676070549, 0.0, 0.04800000227987766, 0.9760000463575125, 0.0, 0.0, 0.0, 0.0, 0.0, 1.756469470002956E9, 0.0, 2025-08-29 09:11:10.002
65.0, -4434.298400162719, 1822.0642988123, -3089.052646201104, -842.756535815075, 0.0, 0.04800000227987766, 0.9760000463575125, 0.0, 0.0, 0.0, 0.0, 0.0, 1.756469470002956E9, 0.0, 2025-08-29 09:11:10.002
66.0, -4256.387619370595, 1585.1771656689234, -2870.5078523904085, -820.926739773713, 0.0, 0.04800000227987766, 0.9760000463575125, 0.0, 0.0, 0.0, 0.0, 0.0, 1.7564694700036943E9, 0.0, 2025-08-29 09:11:10.003
66.0, -4422.884225497954, 1534.7782738660462, -2784.462104159873, -869.508040198125, 0.0, 0.04800000227987766, 0.9760000463575125, 0.0, 0.0, 0.0, 0.0, 0.0, 1.7564694700036943E9, 0.0, 2025-08-29 09:11:10.003
67.0, -4514.399577413686, 1663.4252224918455, -2995.945966854226, -807.3303334848024, 0.0, 0.04800000227987766, 0.9760000463575125, 0.0, 0.0, 0.0, 0.0, 0.0, 1.7564694700173147E9, 0.0, 2025-08-29 09:11:10.017
67.0, -4754.226271922234, 1499.1445070882328, -3062.159025619738, -898.8438154505566, 0.0, 0.04800000227987766, 0.9760000463575125, 0.0, 0.0, 0.0, 0.0, 0.0, 1.7564694700173147E9, 0.0, 2025-08-29 09:11:10.017
68.0, -4855.154952026438, 1368.236788939219, -3023.1930079814047, -1130.5661467551254, 0.0, 0.04800000227987766, 0.9760000463575125, 0.0, 0.0, 0.0, 0.0, 0.0, 1.7564694700330033E9, 0.0, 2025-08-29 09:11:10.033
68.0, -5013.924924845342, 1131.1570509481244, -3226.927797967568, -1138.8612448568456, 0.0, 0.04800000227987766, 0.9760000463575125, 0.0, 0.0, 0.0, 0.0, 0.0, 1.7564694700330033E9, 0.0, 2025-08-29 09:11:10.033
69.0, -4823.866948997136, 1189.4920104569755, -3313.8075438882224, -1076.2927185981534, 0.0, 0.04800000227987766, 0.9760000463575125, 0.0, 0.0, 0.0, 0.0, 0.0, 1.756469470033677E9, 0.0, 2025-08-29 09:11:10.033
69.0, -4787.911550823133, 1020.2671473119408, -3143.563558005262, -1197.6356426104903, 0.0, 0.04800000227987766, 0.9760000463575125, 0.0, 0.0, 0.0, 0.0, 0.0, 1.756469470033677E9, 0.0, 2025-08-29 09:11:10.033
70.0, -4968.645956081804, 1259.6375740258954, -3019.3820499265566, -1027.6254004747607, 0.0, 0.04800000227987766, 0.9760000463575125, 0.0, 0.0, 0.0, 0.0, 0.0, 1.7564694700473087E9, 0.0, 2025-08-29 09:11:10.047
70.0, -4921.407279741485, 1322.0789436860941, -3128.7591640306637, -866.9424688285217, 0.0, 0.04800000227987766, 0.9760000463575125, 0.0, 0.0, 0.0, 0.0, 0.0, 1.7564694700473087E9, 0.0, 2025-08-29 09:11:10.047
71.0, -4739.689280794468, 1562.158081441652, -2932.7510073529556, -878.2949351440184, 0.0, 0.04800000227987766, 0.9760000463575125, 0.0, 0.0, 0.0, 0.0, 0.0, 1.7564694700629585E9, 0.0, 2025-08-29 09:11:10.062
71.0, -4909.757491379511, 1540.97902799258, -2803.262581237126, -892.8543656715192, 0.0, 0.04800000227987766, 0.9760000463575125, 0.0, 0.0, 0.0, 0.0, 0.0, 1.7564694700629585E9, 0.0, 2025-08-29 09:11:10.062
72.0, -5007.013589727227, 1643.9927023220807, -2562.560750138946, -851.86319220718, 0.0, 0.04800000227987766, 0.9760000463575125, 0.0, 0.0, 0.0, 0.0, 0.0, 1.7564694700636845E9, 0.0, 2025-08-29 09:11:10.063
72.0, -5242.999406981282, 1473.3765963935293, -2635.198957028333, -972.215042731259, 0.0, 0.04800000227987766, 0.9760000463575125, 0.0, 0.0, 0.0, 0.0, 0.0, 1.7564694700636845E9, 0.0, 2025-08-29 09:11:10.063
73.0, -5339.219553041272, 1374.243068268057, -2560.2887609158643, -1160.6181128490716, 0.0, 0.04800000227987766, 0.9760000463575125, 0.0, 0.0, 0.0, 0.0, 0.0, 1.7564694700773487E9, 0.0, 2025-08-29 09:11:10.077
73.0, -5507.500091447495, 1612.1511940993369, -2762.508891419973, -1154.703461069148, 0.0, 0.04800000227987766, 0.9760000463575125, 0.0, 0.0, 0.0, 0.0, 0.0, 1.7564694700773487E9, 0.0, 2025-08-29 09:11:10.077
74.0, -5313.690995943733, 1659.367431039922, -2871.528845078312, -1125.9436304098926, 0.0, 0.04800000227987766, 0.9760000463575125, 0.0, 0.0, 0.0, 0.0, 0.0, 1.7564694700930674E9, 0.0, 2025-08-29 09:11:10.093
74.0, -5284.665632387623, 1494.9146802383475, -2679.5074217533693, -1227.8241150528193, 0.0, 0.04800000227987766, 0.9760000463575125, 0.0, 0.0, 0.0, 0.0, 0.0, 1.7564694700930674E9, 0.0, 2025-08-29 09:11:10.093
75.0, -5465.336459347047, 1253.7846305952407, -2521.1133088800125, -1031.44383832952, 0.0, 0.04800000227987766, 0.9760000463575125, 0.0, 0.0, 0.0, 0.0, 0.0, 1.756469470093743E9, 0.0, 2025-08-29 09:11:10.093
75.0, -5419.365609091707, 1293.184476628434, -2658.165682656225, -906.5667088590562, 0.0, 0.04800000227987766, 0.9760000463575125, 0.0, 0.0, 0.0, 0.0, 0.0, 1.756469470093743E9, 0.0, 2025-08-29 09:11:10.093
76.0, -5236.046932963654, 1066.9934573583305, -2452.2206117962487, -893.5256777135655, 0.0, 0.04800000227987766, 0.9760000463575125, 0.0, 0.0, 0.0, 0.0, 0.0, 1.7564694701073172E9, 0.0, 2025-08-29 09:11:10.107
76.0, -5406.436774944887, 1053.3390826201066, -2299.4662680560723, -890.4533498999663, 0.0, 0.04800000227987766, 0.9760000463575125, 0.0, 0.0, 0.0, 0.0, 0.0, 1.7564694701073172E9, 0.0, 2025-08-29 09:11:10.107
77.0, -5497.095689770766, 1140.7349347346462, -2077.497595835943, -865.3978901468217, 0.0, 0.04800000227987766, 0.9760000463575125, 0.0, 0.0, 0.0, 0.0, 0.0, 1.7564694701230369E9, 0.0, 2025-08-29 09:11:10.123
77.0, -5734.315674010199, 955.559398278594, -2180.0138634713367, -1001.4797598845325, 0.0, 0.04800000227987766, 0.9760000463575125, 0.0, 0.0, 0.0, 0.0, 0.0, 1.7564694701230369E9, 0.0, 2025-08-29 09:11:10.123
78.0, -5828.003907800186, 882.8146042404696, -2071.0705777620897, -1158.5611678734422, 0.0, 0.04800000227987766, 0.9760000463575125, 0.0, 0.0, 0.0, 0.0, 0.0, 1.7564694701238058E9, 0.0, 2025-08-29 09:11:10.123
78.0, -5991.654450061265, 1118.703184095677, -2277.5467144157737, -1164.8554194988683, 0.0, 0.04800000227987766, 0.9760000463575125, 0.0, 0.0, 0.0, 0.0, 0.0, 1.7564694701238058E9, 0.0, 2025-08-29 09:11:10.123
79.0, -5808.238536534365, 1136.5948654836975, -2435.839849990327, -1179.053949680645, 0.0, 0.04800000227987766, 0.9760000463575125, 0.0, 0.0, 0.0, 0.0, 0.0, 1.756469470137339E9, 0.0, 2025-08-29 09:11:10.137
79.0, -5770.630102579948, 1001.522768734023, -2212.997911130544, -1243.6326721655205, 0.0, 0.04800000227987766, 0.9760000463575125, 0.0, 0.0, 0.0, 0.0, 0.0, 1.756469470137339E9, 0.0, 2025-08-29 09:11:10.137
80.0, -5959.266916444991, 1245.470832993742, -2043.2382422918454, -1044.4250310757197, 0.0, 0.04800000227987766, 0.9760000463575125, 0.0, 0.0, 0.0, 0.0, 0.0, 1.7564694701530712E9, 0.0, 2025-08-29 09:11:10.153
80.0, -5915.323091965634, 1257.0757425562479, -2228.505406296812, -960.8251774162054, 0.0, 0.04800000227987766, 0.9760000463575125, 0.0, 0.0, 0.0, 0.0, 0.0, 1.7564694701530712E9, 0.0, 2025-08-29 09:11:10.153
81.0, -5718.406139598694, 1012.7424686010927, -2068.2843522951007, -997.7884786282666, 0.0, 0.04800000227987766, 0.9760000463575125, 0.0, 0.0, 0.0, 0.0, 0.0, 1.7564694701537745E9, 0.0, 2025-08-29 09:11:10.153
81.0, -5889.585100470576, 1037.1060468624346, -1879.6344487802126, -954.1419761953875, 0.0, 0.04800000227987766, 0.9760000463575125, 0.0, 0.0, 0.0, 0.0, 0.0, 1.7564694701537745E9, 0.0, 2025-08-29 09:11:10.153
82.0, -5992.069578956347, 1073.6990979788825, -1703.206538320519, -980.5120107829571, 0.0, 0.04800000227987766, 0.9760000463575125, 0.0, 0.0, 0.0, 0.0, 0.0, 1.7564694701673195E9, 0.0, 2025-08-29 09:11:10.167
82.0, -6228.672479703091, 865.3810605970211, -1879.4324941826053, -1178.0479165925644, 0.0, 0.04800000227987766, 0.9760000463575125, 0.0, 0.0, 0.0, 0.0, 0.0, 1.7564694701673195E9, 0.0, 2025-08-29 09:11:10.167
83.0, -6311.425246022642, 801.739183051046, -1759.4191046045162, -1326.385438485071, 0.0, 0.04800000227987766, 0.9760000463575125, 0.0, 0.0, 0.0, 0.0, 0.0, 1.756469470183081E9, 0.0, 2025-08-29 09:11:10.183
83.0, -6494.792540850118, 1036.569371218793, -1951.9005356240086, -1320.5755039039068, 0.0, 0.04800000227987766, 0.9760000463575125, 0.0, 0.0, 0.0, 0.0, 0.0, 1.756469470183081E9, 0.0, 2025-08-29 09:11:10.183
84.0, -6299.315449966118, 1058.31688946113, -2109.5429286062717, -1329.209062951617, 0.0, 0.04800000227987766, 0.9760000463575125, 0.0, 0.0, 0.0, 0.0, 0.0, 1.756469470183818E9, 0.0, 2025-08-29 09:11:10.183
84.0, -6262.249301505275, 952.2439769678749, -2349.9829667075537, -1373.9737954712473, 0.0, 0.04800000227987766, 0.9760000463575125, 0.0, 0.0, 0.0, 0.0, 0.0, 1.756469470183818E9, 0.0, 2025-08-29 09:11:10.183
85.0, -6446.151402026415, 1197.2579127149656, -2164.7214125525206, -1166.9983821734786, 0.0, 0.04800000227987766, 0.9760000463575125, 0.0, 0.0, 0.0, 0.0, 0.0, 1.7564694701972966E9, 0.0, 2025-08-29 09:11:10.197
85.0, -6402.805961539969, 1190.728047392331, -2368.8227127343416, -1101.4061468006112, 0.0, 0.04800000227987766, 0.9760000463575125, 0.0, 0.0, 0.0, 0.0, 0.0, 1.7564694701972966E9, 0.0, 2025-08-29 09:11:10.197
86.0, -6216.6187821459025, 1001.2291865875013, -2168.5435903072357, -1073.4541345317848, 0.0, 0.04800000227987766, 0.9760000463575125, 0.0, 0.0, 0.0, 0.0, 0.0, 1.7564694702130563E9, 0.0, 2025-08-29 09:11:10.213
86.0, -6377.6401747381315, 1025.22251475323, -1938.242420985829, -993.1977514326572, 0.0, 0.04800000227987766, 0.9760000463575125, 0.0, 0.0, 0.0, 0.0, 0.0, 1.7564694702130563E9, 0.0, 2025-08-29 09:11:10.213
87.0, -6478.954064537771, 1069.36268398026, -1709.4559111464769, -986.1012912667356, 0.0, 0.04800000227987766, 0.9760000463575125, 0.0, 0.0, 0.0, 0.0, 0.0, 1.7564694702137933E9, 0.0, 2025-08-29 09:11:10.213
87.0, -6714.408815998118, 884.0599909257144, -1861.1967419986613, -1152.4688708456233, 0.0, 0.04800000227987766, 0.9760000463575125, 0.0, 0.0, 0.0, 0.0, 0.0, 1.7564694702137933E9, 0.0, 2025-08-29 09:11:10.213
88.0, -6803.594210241456, 858.7259086258709, -1677.09642677987, -1249.7978972424753, 0.0, 0.04800000227987766, 0.9760000463575125, 0.0, 0.0, 0.0, 0.0, 0.0, 1.7564694702272763E9, 0.0, 2025-08-29 09:11:10.227
88.0, -6982.690539319534, 1069.6020375774242, -1895.959112086799, -1277.734949911479, 0.0, 0.04800000227987766, 0.9760000463575125, 0.0, 0.0, 0.0, 0.0, 0.0, 1.7564694702272763E9, 0.0, 2025-08-29 09:11:10.227
89.0, -6789.666822806466, 1045.3282169150189, -2115.4818897359073, -1349.266146413982, 0.0, 0.04800000227987766, 0.9760000463575125, 0.0, 0.0, 0.0, 0.0, 0.0, 1.7564694702430496E9, 0.0, 2025-08-29 09:11:10.243
89.0, -6738.355395414401, 950.916312483605, -2355.671354540158, -1379.3143726079725, 0.0, 0.04800000227987766, 0.9760000463575125, 0.0, 0.0, 0.0, 0.0, 0.0, 1.7564694702430496E9, 0.0, 2025-08-29 09:11:10.243
90.0, -6936.315779868979, 1193.8920027548447, -2181.072255158797, -1172.5745730074123, 0.0, 0.04800000227987766, 0.9760000463575125, 0.0, 0.0, 0.0, 0.0, 0.0, 1.7564694702437534E9, 0.0, 2025-08-29 09:11:10.243
90.0, -6902.525783769321, 1147.0385361099616, -1957.8432366536, -1166.9591132239439, 0.0, 0.04800000227987766, 0.9760000463575125, 0.0, 0.0, 0.0, 0.0, 0.0, 1.7564694702437534E9, 0.0, 2025-08-29 09:11:10.243
91.0, -6701.81657284731, 947.7598369210027, -1754.6058533615433, -1152.0369124007411, 0.0, 0.04800000227987766, 0.9760000463575125, 0.0, 0.0, 0.0, 0.0, 0.0, 1.756469470257275E9, 0.0, 2025-08-29 09:11:10.257
91.0, -6863.077319036704, 1012.2001831075177, -1974.6877460540272, -1035.0771511364728, 0.0, 0.04800000227987766, 0.9760000463575125, 0.0, 0.0, 0.0, 0.0, 0.0, 1.756469470257275E9, 0.0, 2025-08-29 09:11:10.257
92.0, -6970.831316560041, 1000.7112104436383, -1838.224406520836, -1114.0189594011754, 0.0, 0.04800000227987766, 0.9760000463575125, 0.0, 0.0, 0.0, 0.0, 0.0, 1.75646947027305E9, 0.0, 2025-08-29 09:11:10.273
92.0, -7202.8603196609765, 789.0310030016117, -2045.4167340160348, -1332.958312657196, 0.0, 0.04800000227987766, 0.9760000463575125, 0.0, 0.0, 0.0, 0.0, 0.0, 1.75646947027305E9, 0.0, 2025-08-29 09:11:10.273
93.0, -7289.065013639629, 783.0135039729066, -1865.4377885484137, -1427.6282701855525, 0.0, 0.04800000227987766, 0.9760000463575125, 0.0, 0.0, 0.0, 0.0, 0.0, 1.7564694702737463E9, 0.0, 2025-08-29 09:11:10.273
93.0, -7475.36065013241, 1016.3589518582448, -2031.0816974858753, -1399.292918171268, 0.0, 0.04800000227987766, 0.9760000463575125, 0.0, 0.0, 0.0, 0.0, 0.0, 1.7564694702737463E9, 0.0, 2025-08-29 09:11:10.273
94.0, -7283.462643506005, 975.1733035962097, -1787.0195662775077, -1490.7989203371108, 0.0, 0.04800000227987766, 0.9760000463575125, 0.0, 0.0, 0.0, 0.0, 0.0, 1.7564694703044095E9, 0.0, 2025-08-29 09:11:10.304
94.0, -7228.530992956832, 886.404908197932, -1543.3127255649306, -1532.6128717917018, 0.0, 0.04800000227987766, 0.9760000463575125, 0.0, 0.0, 0.0, 0.0, 0.0, 1.7564694703044095E9, 0.0, 2025-08-29 09:11:10.304
95.0, -7434.614440115169, 666.0313033089042, -1315.6781049119309, -1770.3508321749978, 0.0, 0.04800000227987766, 0.9760000463575125, 0.0, 0.0, 0.0, 0.0, 0.0, 1.756469470305158E9, 0.0, 2025-08-29 09:11:10.305
95.0, -7396.325344368815, 627.7085484629497, -1071.4944269550033, -1746.925968802534, 0.0, 0.04800000227987766, 0.9760000463575125, 0.0, 0.0, 0.0, 0.0, 0.0, 1.756469470305158E9, 0.0, 2025-08-29 09:11:10.305
96.0, -7190.829061503522, 429.76125365821645, -870.3326881383546, -1731.1061919899657, 0.0, 0.04800000227987766, 0.9760000463575125, 0.0, 0.0, 0.0, 0.0, 0.0, 1.7564694703059309E9, 0.0, 2025-08-29 09:11:10.305
96.0, -7364.913924640976, 499.1307879863307, -1075.754173004534, -1603.5886931507848, 0.0, 0.04800000227987766, 0.9760000463575125, 0.0, 0.0, 0.0, 0.0, 0.0, 1.7564694703059309E9, 0.0, 2025-08-29 09:11:10.305
97.0, -7478.101996799931, 512.5102800778113, -907.8794137435034, -1646.2871309448965, 0.0, 0.04800000227987766, 0.9760000463575125, 0.0, 0.0, 0.0, 0.0, 0.0, 1.75646947031734E9, 0.0, 2025-08-29 09:11:10.317
97.0, -7700.044489720371, 297.75961477216333, -1094.3489555842243, -1852.7726173484698, 0.0, 0.04800000227987766, 0.9760000463575125, 0.0, 0.0, 0.0, 0.0, 0.0, 1.75646947031734E9, 0.0, 2025-08-29 09:11:10.317
98.0, -7780.871207562741, 298.2121426668018, -889.5370744108222, -1914.591293666046, 0.0, 0.04800000227987766, 0.9760000463575125, 0.0, 0.0, 0.0, 0.0, 0.0, 1.7564694703494296E9, 0.0, 2025-08-29 09:11:10.349
98.0, -7960.992269228678, 478.2752358834259, -648.895081711933, -1968.76748442417, 0.0, 0.04800000227987766, 0.9760000463575125, 0.0, 0.0, 0.0, 0.0, 0.0, 1.7564694703494296E9, 0.0, 2025-08-29 09:11:10.349
99.0, -7772.606028660666, 462.94351601507515, -874.9664241834544, -2041.42065091338, 0.0, 0.04800000227987766, 0.9760000463575125, 0.0, 0.0, 0.0, 0.0, 0.0, 1.7564694703501542E9, 0.0, 2025-08-29 09:11:10.350
99.0, -7732.820972932037, 399.38204631814733, -1079.626839408651, -2040.8746255198494, 0.0, 0.04800000227987766, 0.9760000463575125, 0.0, 0.0, 0.0, 0.0, 0.0, 1.7564694703501542E9, 0.0, 2025-08-29 09:11:10.350
100.0, -7917.9684601384215, 195.94270842848346, -1298.369847916998, -2241.7521319398656, 0.0, 0.04800000227987766, 0.9760000463575125, 0.0, 0.0, 0.0, 0.0, 0.0, 1.7564694703508976E9, 0.0, 2025-08-29 09:11:10.350
100.0, -7883.213569850195, 121.17462851433083, -1080.4814065485261, -2250.009831042029, 0.0, 0.04800000227987766, 0.9760000463575125, 0.0, 0.0, 0.0, 0.0, 0.0, 1.7564694703508976E9, 0.0, 2025-08-29 09:11:10.350
0.0, 162.7417465718463, 2861.7976253936067, 3018.463904487435, 3125.645697317552, 0.0, 0.04800000227987766, 0.9760000463575125, 0.0, 0.0, 0.0, 0.0, 0.0, 1.7564694703516371E9, 0.0, 2025-08-29 09:11:10.351
1.0, -1.5221392819657922, 2959.83723278204, 2855.0003572241403, 3303.274115663022, 0.0, 0.04800000227987766, 0.9760000463575125, 0.0, 0.0, 0.0, 0.0, 0.0, 1.7564694703623335E9, 0.0, 2025-08-29 09:11:10.362
1.0, -117.6497728060931, 2972.042396287434, 3023.6530156759545, 3260.276485872455, 0.0, 0.04800000227987766, 0.9760000463575125, 0.0, 0.0, 0.0, 0.0, 0.0, 1.7564694703623335E9, 0.0, 2025-08-29 09:11:10.362
2.0, -344.8917039637454, 3214.6459665130824, 3262.33717074804, 3489.412676357664, 0.0, 0.04800000227987766, 0.9760000463575125, 0.0, 0.0, 0.0, 0.0, 0.0, 1.7564694703781009E9, 0.0, 2025-08-29 09:11:10.378
2.0, -426.4813613970764, 3237.7024497399107, 3486.97800148651, 3444.9508757344447, 0.0, 0.04800000227987766, 0.9760000463575125, 0.0, 0.0, 0.0, 0.0, 0.0, 1.7564694703781009E9, 0.0, 2025-08-29 09:11:10.378
3.0, -611.4081945060752, 3476.0705832657404, 3344.6224495731294, 3495.5386324850842, 0.0, 0.04800000227987766, 0.9760000463575125, 0.0, 0.0, 0.0, 0.0, 0.0, 1.7564694703787773E9, 0.0, 2025-08-29 09:11:10.378
3.0, -424.9218231155537, 3421.137062766589, 3566.8473049402237, 3364.77864038432, 0.0, 0.04800000227987766, 0.9760000463575125, 0.0, 0.0, 0.0, 0.0, 0.0, 1.7564694703787773E9, 0.0, 2025-08-29 09:11:10.378
4.0, -367.05809100111946, 3348.7195099745877, 3334.1787789468654, 3348.706420324743, 0.0, 0.04800000227987766, 0.9760000463575125, 0.0, 0.0, 0.0, 0.0, 0.0, 1.7564694703923252E9, 0.0, 2025-08-29 09:11:10.392
4.0, -565.9758898443542, 3163.841295565013, 3139.1242967578582, 3173.731460997835, 0.0, 0.04800000227987766, 0.9760000463575125, 0.0, 0.0, 0.0, 0.0, 0.0, 1.7564694703923252E9, 0.0, 2025-08-29 09:11:10.392
5.0, -535.0244778110646, 3069.042311488185, 3323.1666435273364, 3139.4814572036266, 0.0, 0.04800000227987766, 0.9760000463575125, 0.0, 0.0, 0.0, 0.0, 0.0, 1.7564694704081511E9, 0.0, 2025-08-29 09:11:10.408
5.0, -333.15215800283477, 2878.5299377953634, 3505.550344666466, 3129.684789269697, 0.0, 0.04800000227987766, 0.9760000463575125, 0.0, 0.0, 0.0, 0.0, 0.0, 1.7564694704081511E9, 0.0, 2025-08-29 09:11:10.408
6.0, -490.00730204442516, 2993.4551934837364, 3389.5723071405664, 3346.787851647474, 0.0, 0.04800000227987766, 0.9760000463575125, 0.0, 0.0, 0.0, 0.0, 0.0, 1.756469470408792E9, 0.0, 2025-08-29 09:11:10.408
6.0, -600.1286562397145, 2984.4083754909225, 3537.173068741802, 3291.8711606981233, 0.0, 0.04800000227987766, 0.9760000463575125, 0.0, 0.0, 0.0, 0.0, 0.0, 1.756469470408792E9, 0.0, 2025-08-29 09:11:10.408
7.0, -835.3889329023659, 3211.0724921054207, 3757.0904058362357, 3495.145942989737, 0.0, 0.04800000227987766, 0.9760000463575125, 0.0, 0.0, 0.0, 0.0, 0.0, 1.7564694704222898E9, 0.0, 2025-08-29 09:11:10.422
7.0, -918.0519416229799, 3283.3049198496155, 3556.532660862431, 3515.562056847848, 0.0, 0.04800000227987766, 0.9760000463575125, 0.0, 0.0, 0.0, 0.0, 0.0, 1.7564694704222898E9, 0.0, 2025-08-29 09:11:10.422
8.0, -1103.7641537226737, 3482.5686594387516, 3397.067066651769, 3540.6436959006824, 0.0, 0.04800000227987766, 0.9760000463575125, 0.0, 0.0, 0.0, 0.0, 0.0, 1.7564694704380548E9, 0.0, 2025-08-29 09:11:10.438
8.0, -917.6929112272337, 3391.2945310701616, 3537.8069817842916, 3342.5804641973227, 0.0, 0.04800000227987766, 0.9760000463575125, 0.0, 0.0, 0.0, 0.0, 0.0, 1.7564694704380548E9, 0.0, 2025-08-29 09:11:10.438
9.0, -858.2920802310109, 3354.1591944601387, 3347.014115594793, 3360.96955227945, 0.0, 0.04800000227987766, 0.9760000463575125, 0.0, 0.0, 0.0, 0.0, 0.0, 1.7564694704387412E9, 0.0, 2025-08-29 09:11:10.438
9.0, -1052.0001984359697, 3174.539279388264, 3174.911399433855, 3205.5019111214206, 0.0, 0.04800000227987766, 0.9760000463575125, 0.0, 0.0, 0.0, 0.0, 0.0, 1.7564694704387412E9, 0.0, 2025-08-29 09:11:10.438
10.0, -1029.4710411028937, 3030.171661298722, 3278.545897156, 3087.3809109209105, 0.0, 0.04800000227987766, 0.9760000463575125, 0.0, 0.0, 0.0, 0.0, 0.0, 1.7564694704522896E9, 0.0, 2025-08-29 09:11:10.452
10.0, -820.481691678986, 2833.462273379322, 3439.9861585432664, 3060.7135542868637, 0.0, 0.04800000227987766, 0.9760000463575125, 0.0, 0.0, 0.0, 0.0, 0.0, 1.7564694704522896E9, 0.0, 2025-08-29 09:11:10.452
11.0, -977.0974821234122, 2987.5779407033697, 3361.1228881776333, 2837.116155636031, 0.0, 0.06400000303983688, 0.9760000463575125, 0.0, 0.0, 0.0, 0.0, 0.0, 1.7564694704680655E9, 0.0, 2025-08-29 09:11:10.468
11.0, -1099.1191979777068, 2963.2162323920056, 3514.6775705083273, 2776.2904227566905, 0.0, 0.06400000303983688, 0.9760000463575125, 0.0, 0.0, 0.0, 0.0, 0.0, 1.7564694704680655E9, 0.0, 2025-08-29 09:11:10.468
12.0, -1321.9704865873791, 3184.932461365126, 3714.608882239554, 2959.1902300897054, 0.0, 0.06400000303983688, 0.9760000463575125, 0.0, 0.0, 0.0, 0.0, 0.0, 1.7564694704688184E9, 0.0, 2025-08-29 09:11:10.468
12.0, -1406.1032759905793, 3272.85376942344, 3537.945358082652, 3003.8483754605986, 0.0, 0.06400000303983688, 0.9760000463575125, 0.0, 0.0, 0.0, 0.0, 0.0, 1.7564694704688184E9, 0.0, 2025-08-29 09:11:10.468
13.0, -1602.8107939600013, 3475.3450426743366, 3366.841195209883, 3016.786559357308, 0.0, 0.06400000303983688, 0.9760000463575125, 0.0, 0.0, 0.0, 0.0, 0.0, 1.7564694704987292E9, 0.0, 2025-08-29 09:11:10.498
13.0, -1412.004838120658, 3349.2861048178747, 3473.024434751831, 2775.793016062584, 0.0, 0.06400000303983688, 0.9760000463575125, 0.0, 0.0, 0.0, 0.0, 0.0, 1.7564694704987292E9, 0.0, 2025-08-29 09:11:10.498
14.0, -1356.3887858795933, 3329.6161010009237, 3286.2706605144776, 2802.3874446474947, 0.0, 0.06400000303983688, 0.9760000463575125, 0.0, 0.0, 0.0, 0.0, 0.0, 1.756469470499462E9, 0.0, 2025-08-29 09:11:10.499
14.0, -1538.652810220141, 3197.1712839701213, 3174.645866537001, 2719.9189107245766, 0.0, 0.06400000303983688, 0.9760000463575125, 0.0, 0.0, 0.0, 0.0, 0.0, 1.756469470499462E9, 0.0, 2025-08-29 09:11:10.499
15.0, -1521.153818327468, 3014.866120730061, 3267.176601290703, 2591.7861983426847, 0.0, 0.06400000303983688, 0.9760000463575125, 0.0, 0.0, 0.0, 0.0, 0.0, 1.756469470500209E9, 0.0, 2025-08-29 09:11:10.500
15.0, -1311.2930722138844, 2852.2870598062873, 3449.010537136346, 2577.7634434588253, 0.0, 0.06400000303983688, 0.9760000463575125, 0.0, 0.0, 0.0, 0.0, 0.0, 1.756469470500209E9, 0.0, 2025-08-29 09:11:10.500
16.0, -1477.22869334789, 3012.405266559217, 3402.3777245888487, 2375.356317956932, 0.0, 0.06400000303983688, 0.9760000463575125, 0.0, 0.0, 0.0, 0.0, 0.0, 1.75646947051235E9, 0.0, 2025-08-29 09:11:10.512
16.0, -1587.1518328455277, 2970.690422453452, 3535.1310833659954, 2294.3575647166, 0.0, 0.06400000303983688, 0.9760000463575125, 0.0, 0.0, 0.0, 0.0, 0.0, 1.75646947051235E9, 0.0, 2025-08-29 09:11:10.512
17.0, -1813.28301371634, 3159.858302112203, 3669.1092593786307, 2430.471223603934, 0.0, 0.06400000303983688, 0.9760000463575125, 0.0, 0.0, 0.0, 0.0, 0.0, 1.7564694705284207E9, 0.0, 2025-08-29 09:11:10.528
17.0, -1896.3648912319914, 3286.842865207698, 3544.351806706749, 2520.7598883342, 0.0, 0.06400000303983688, 0.9760000463575125, 0.0, 0.0, 0.0, 0.0, 0.0, 1.7564694705284207E9, 0.0, 2025-08-29 09:11:10.528
18.0, -2085.757164888084, 3487.7334612775594, 3398.64530443307, 2556.1860906644724, 0.0, 0.06400000303983688, 0.9760000463575125, 0.0, 0.0, 0.0, 0.0, 0.0, 1.7564694705430725E9, 0.0, 2025-08-29 09:11:10.543
18.0, -1901.6007511699572, 3343.577147535514, 3477.658170796931, 2787.7120772213675, 0.0, 0.06400000303983688, 0.9760000463575125, 0.0, 0.0, 0.0, 0.0, 0.0, 1.7564694705430725E9, 0.0, 2025-08-29 09:11:10.543
19.0, -1845.8538024304435, 3318.828359578736, 3282.7626343560405, 2807.7467212839983, 0.0, 0.06400000303983688, 0.9760000463575125, 0.0, 0.0, 0.0, 0.0, 0.0, 1.7564694705437732E9, 0.0, 2025-08-29 09:11:10.543
19.0, -2037.0748871648684, 3170.085058541037, 3143.795431802515, 2694.308075828012, 0.0, 0.06400000303983688, 0.9760000463575125, 0.0, 0.0, 0.0, 0.0, 0.0, 1.7564694705437732E9, 0.0, 2025-08-29 09:11:10.543
20.0, -2014.684106130153, 3003.6707302127033, 3250.6911222860217, 2579.4482683888637, 0.0, 0.06400000303983688, 0.9760000463575125, 0.0, 0.0, 0.0, 0.0, 0.0, 1.7564694705580702E9, 0.0, 2025-08-29 09:11:10.558
20.0, -1804.1838371241465, 2838.14088822389, 3431.343249745667, 2571.9254596279934, 0.0, 0.06400000303983688, 0.9760000463575125, 0.0, 0.0, 0.0, 0.0, 0.0, 1.7564694705580702E9, 0.0, 2025-08-29 09:11:10.558
21.0, -1966.2150027044117, 3008.0239737611264, 3391.4347773185, 2364.9032975807786, 0.0, 0.04800000227987766, 0.9760000463575125, 0.0, 0.0, 0.0, 0.0, 0.0, 1.7564694705587728E9, 0.0, 2025-08-29 09:11:10.558
21.0, -2080.1547947544605, 2966.7167787505314, 3519.988228445407, 2287.603305396624, 0.0, 0.04800000227987766, 0.9760000463575125, 0.0, 0.0, 0.0, 0.0, 0.0, 1.7564694705587728E9, 0.0, 2025-08-29 09:11:10.558
22.0, -2303.7204042556696, 3172.990960806608, 3680.826365939807, 2437.778988117352, 0.0, 0.04800000227987766, 0.9760000463575125, 0.0, 0.0, 0.0, 0.0, 0.0, 1.7564694705723524E9, 0.0, 2025-08-29 09:11:10.572
22.0, -2391.2565026185475, 3302.7804488688707, 3540.5819875514135, 2514.7461292054504, 0.0, 0.04800000227987766, 0.9760000463575125, 0.0, 0.0, 0.0, 0.0, 0.0, 1.7564694705723524E9, 0.0, 2025-08-29 09:11:10.572
23.0, -2567.4992880304344, 3484.5489364652894, 3406.6748696379364, 2551.477556620259, 0.0, 0.04800000227987766, 0.9760000463575125, 0.0, 0.0, 0.0, 0.0, 0.0, 1.7564694705881076E9, 0.0, 2025-08-29 09:11:10.588
23.0, -2388.3506003529765, 3327.2206950793043, 3449.8594944262877, 2758.5371176670305, 0.0, 0.04800000227987766, 0.9760000463575125, 0.0, 0.0, 0.0, 0.0, 0.0, 1.7564694705881076E9, 0.0, 2025-08-29 09:11:10.588
24.0, -2334.024813596625, 3353.9684595623985, 3316.548890555743, 2836.6299686417915, 0.0, 0.04800000227987766, 0.9760000463575125, 0.0, 0.0, 0.0, 0.0, 0.0, 1.7564694705887964E9, 0.0, 2025-08-29 09:11:10.588
24.0, -2520.7841976839118, 3231.643811811693, 3242.592368931975, 2780.591307705734, 0.0, 0.04800000227987766, 0.9760000463575125, 0.0, 0.0, 0.0, 0.0, 0.0, 1.7564694705887964E9, 0.0, 2025-08-29 09:11:10.588
25.0, -2491.71769522829, 3020.691014911048, 3293.6999717764556, 2610.945705815684, 0.0, 0.04800000227987766, 0.9760000463575125, 0.0, 0.0, 0.0, 0.0, 0.0, 1.7564694706023536E9, 0.0, 2025-08-29 09:11:10.602
25.0, -2293.5179571765475, 2846.4472060254775, 3453.004750289023, 2584.4653441794217, 0.0, 0.04800000227987766, 0.9760000463575125, 0.0, 0.0, 0.0, 0.0, 0.0, 1.7564694706023536E9, 0.0, 2025-08-29 09:11:10.602
26.0, -2457.0563024389558, 3059.4700375515968, 3474.039817589801, 2452.2860600454733, 0.0, 0.04800000227987766, 0.9760000463575125, 0.0, 0.0, 0.0, 0.0, 0.0, 1.756469470618078E9, 0.0, 2025-08-29 09:11:10.618
26.0, -2567.832139126491, 2982.2523231664672, 3593.1687208283693, 2347.4043056881055, 0.0, 0.04800000227987766, 0.9760000463575125, 0.0, 0.0, 0.0, 0.0, 0.0, 1.756469470618078E9, 0.0, 2025-08-29 09:11:10.618
27.0, -2792.287844817154, 3178.780325938016, 3723.3134993864223, 2472.2047672094777, 0.0, 0.04800000227987766, 0.9760000463575125, 0.0, 0.0, 0.0, 0.0, 0.0, 1.7564694706188138E9, 0.0, 2025-08-29 09:11:10.618
27.0, -2874.7264595404267, 3344.626189473085, 3647.832968530711, 2617.155809692107, 0.0, 0.04800000227987766, 0.9760000463575125, 0.0, 0.0, 0.0, 0.0, 0.0, 1.7564694706188138E9, 0.0, 2025-08-29 09:11:10.618
28.0, -3063.55400830321, 3550.5693903830834, 3541.6422491888516, 2684.9471062389202, 0.0, 0.04800000227987766, 0.9760000463575125, 0.0, 0.0, 0.0, 0.0, 0.0, 1.7564694706323688E9, 0.0, 2025-08-29 09:11:10.632
28.0, -2871.734539575875, 3358.789190605283, 3538.2071510795504, 2848.3769944026135, 0.0, 0.04800000227987766, 0.9760000463575125, 0.0, 0.0, 0.0, 0.0, 0.0, 1.7564694706323688E9, 0.0, 2025-08-29 09:11:10.632
29.0, -2819.570414993912, 3391.3225803198293, 3408.4793713665567, 2923.788337109145, 0.0, 0.04800000227987766, 0.9760000463575125, 0.0, 0.0, 0.0, 0.0, 0.0, 1.7564694706480756E9, 0.0, 2025-08-29 09:11:10.648
29.0, -3012.1453435122967, 3282.3531153108925, 3361.887697718572, 2891.2025887952186, 0.0, 0.04800000227987766, 0.9760000463575125, 0.0, 0.0, 0.0, 0.0, 0.0, 1.7564694706480756E9, 0.0, 2025-08-29 09:11:10.648
30.0, -2983.1872981553897, 3055.69273859635, 3394.015308287926, 2702.090807635803, 0.0, 0.04800000227987766, 0.9760000463575125, 0.0, 0.0, 0.0, 0.0, 0.0, 1.7564694706487656E9, 0.0, 2025-08-29 09:11:10.648
30.0, -2776.793439300731, 2869.694424150046, 3527.731691303663, 2661.1968715703115, 0.0, 0.04800000227987766, 0.9760000463575125, 0.0, 0.0, 0.0, 0.0, 0.0, 1.7564694706487656E9, 0.0, 2025-08-29 09:11:10.648
31.0, -2944.99917970784, 3094.2211879398674, 3555.4536997252144, 2530.9398960135877, 0.0, 0.04800000227987766, 0.9760000463575125, 0.0, 0.0, 0.0, 0.0, 0.0, 1.7564694706623623E9, 0.0, 2025-08-29 09:11:10.662
31.0, -3061.227790530771, 3022.4001491907984, 3662.457847307436, 2416.988884263672, 0.0, 0.04800000227987766, 0.9760000463575125, 0.0, 0.0, 0.0, 0.0, 0.0, 1.7564694706623623E9, 0.0, 2025-08-29 09:11:10.662
32.0, -3285.5974785224535, 3189.166028114967, 3770.196885230951, 2510.3330472577363, 0.0, 0.04800000227987766, 0.9760000463575125, 0.0, 0.0, 0.0, 0.0, 0.0, 1.7564694706781132E9, 0.0, 2025-08-29 09:11:10.678
32.0, -3363.3873976008035, 3366.8000563103706, 3700.861010002438, 2664.5889608301222, 0.0, 0.04800000227987766, 0.9760000463575125, 0.0, 0.0, 0.0, 0.0, 0.0, 1.7564694706781132E9, 0.0, 2025-08-29 09:11:10.678
33.0, -3552.7160929576494, 3583.633845891338, 3608.272306799423, 2755.2684451057576, 0.0, 0.04800000227987766, 0.9760000463575125, 0.0, 0.0, 0.0, 0.0, 0.0, 1.75646947067876E9, 0.0, 2025-08-29 09:11:10.678
33.0, -3373.0625187861733, 3356.930460327305, 3567.8982168277726, 2867.5514614754356, 0.0, 0.04800000227987766, 0.9760000463575125, 0.0, 0.0, 0.0, 0.0, 0.0, 1.75646947067876E9, 0.0, 2025-08-29 09:11:10.678
34.0, -3305.729359983932, 3393.738555691205, 3433.7461354671977, 2943.6771250735037, 0.0, 0.04800000227987766, 0.9760000463575125, 0.0, 0.0, 0.0, 0.0, 0.0, 1.7564694706923828E9, 0.0, 2025-08-29 09:11:10.692
34.0, -3502.1451657568105, 3293.8607874745503, 3405.5024110018276, 2935.217471373733, 0.0, 0.04800000227987766, 0.9760000463575125, 0.0, 0.0, 0.0, 0.0, 0.0, 1.7564694706923828E9, 0.0, 2025-08-29 09:11:10.692
35.0, -3476.822303156834, 3050.782249954529, 3414.771753042005, 2712.629845710937, 0.0, 0.04800000227987766, 0.9760000463575125, 0.0, 0.0, 0.0, 0.0, 0.0, 1.756469470708136E9, 0.0, 2025-08-29 09:11:10.708
35.0, -3267.885312332306, 2863.9948166175745, 3542.0143692344427, 2662.917225549929, 0.0, 0.04800000227987766, 0.9760000463575125, 0.0, 0.0, 0.0, 0.0, 0.0, 1.756469470708136E9, 0.0, 2025-08-29 09:11:10.708
36.0, -3433.0355544756167, 2621.43986509135, 3605.1681898362003, 2566.3492687940598, 0.0, 0.04800000227987766, 0.9760000463575125, 0.0, 0.0, 0.0, 0.0, 0.0, 1.756469470708764E9, 0.0, 2025-08-29 09:11:10.708
36.0, -3536.83647774579, 2535.485744409729, 3709.0794401550665, 2454.1896691229194, 0.0, 0.04800000227987766, 0.9760000463575125, 0.0, 0.0, 0.0, 0.0, 0.0, 1.756469470708764E9, 0.0, 2025-08-29 09:11:10.708
37.0, -3772.343587805517, 2696.6155941006728, 3788.8365466101095, 2516.8778721801937, 0.0, 0.04800000227987766, 0.9760000463575125, 0.0, 0.0, 0.0, 0.0, 0.0, 1.7564694707223644E9, 0.0, 2025-08-29 09:11:10.722
37.0, -3849.4042263925076, 2898.360757310409, 3751.5441342019476, 2710.2007806897163, 0.0, 0.04800000227987766, 0.9760000463575125, 0.0, 0.0, 0.0, 0.0, 0.0, 1.7564694707223644E9, 0.0, 2025-08-29 09:11:10.722
38.0, -4038.916176847182, 3113.197440315038, 3660.7992016770877, 2788.306721314322, 0.0, 0.04800000227987766, 0.9760000463575125, 0.0, 0.0, 0.0, 0.0, 0.0, 1.75646947073809E9, 0.0, 2025-08-29 09:11:10.738
38.0, -3859.5730143720284, 2879.305967036169, 3596.4448731895536, 2888.2106688306667, 0.0, 0.04800000227987766, 0.9760000463575125, 0.0, 0.0, 0.0, 0.0, 0.0, 1.75646947073809E9, 0.0, 2025-08-29 09:11:10.738
39.0, -3800.8154461681843, 2924.0463902060874, 3474.843896080274, 2967.50776759116, 0.0, 0.04800000227987766, 0.9760000463575125, 0.0, 0.0, 0.0, 0.0, 0.0, 1.7564694707386985E9, 0.0, 2025-08-29 09:11:10.738
39.0, -3993.715745982714, 2838.8028505160473, 3476.9475898053497, 2988.673731390387, 0.0, 0.04800000227987766, 0.9760000463575125, 0.0, 0.0, 0.0, 0.0, 0.0, 1.7564694707386985E9, 0.0, 2025-08-29 09:11:10.738
40.0, -3966.687489002943, 3059.178325355053, 3451.217078110203, 3230.968759869691, 0.0, 0.04800000227987766, 0.9760000463575125, 0.0, 0.0, 0.0, 0.0, 0.0, 1.7564694707523668E9, 0.0, 2025-08-29 09:11:10.752
40.0, -3753.228959131986, 2876.8413729653694, 3562.9278897866607, 3170.496447536163, 0.0, 0.04800000227987766, 0.9760000463575125, 0.0, 0.0, 0.0, 0.0, 0.0, 1.7564694707523668E9, 0.0, 2025-08-29 09:11:10.752
41.0, -3926.973491373472, 2636.623858911451, 3638.015731147025, 3081.6663437886164, 0.0, 0.04800000227987766, 0.9760000463575125, 0.0, 0.0, 0.0, 0.0, 0.0, 1.7564694707680922E9, 0.0, 2025-08-29 09:11:10.768
41.0, -4039.49960124027, 2527.235525107477, 3697.5717679914087, 2930.320072381757, 0.0, 0.04800000227987766, 0.9760000463575125, 0.0, 0.0, 0.0, 0.0, 0.0, 1.7564694707680922E9, 0.0, 2025-08-29 09:11:10.768
42.0, -4267.253898691852, 2664.40009588236, 3734.1330299582332, 2957.73727895692, 0.0, 0.04800000227987766, 0.9760000463575125, 0.0, 0.0, 0.0, 0.0, 0.0, 1.7564694707687469E9, 0.0, 2025-08-29 09:11:10.768
42.0, -4345.320570366923, 2896.6665826304816, 3737.7831723149866, 3180.545558717102, 0.0, 0.04800000227987766, 0.9760000463575125, 0.0, 0.0, 0.0, 0.0, 0.0, 1.7564694707687469E9, 0.0, 2025-08-29 09:11:10.768
43.0, -4536.190104505513, 3114.884135195054, 3666.500679159537, 3286.8241657079197, 0.0, 0.04800000227987766, 0.9760000463575125, 0.0, 0.0, 0.0, 0.0, 0.0, 1.756469470782367E9, 0.0, 2025-08-29 09:11:10.782
43.0, -4343.439400689211, 3347.775185235776, 3562.3388555436395, 3349.7704218621366, 0.0, 0.04800000227987766, 0.9760000463575125, 0.0, 0.0, 0.0, 0.0, 0.0, 1.756469470782367E9, 0.0, 2025-08-29 09:11:10.782
44.0, -4284.330281889532, 3407.8043194245547, 3449.2124917339534, 3438.0545002161525, 0.0, 0.04800000227987766, 0.9760000463575125, 0.0, 0.0, 0.0, 0.0, 0.0, 1.7564694707980928E9, 0.0, 2025-08-29 09:11:10.798
44.0, -4482.45522194216, 3331.312145630829, 3471.878155415412, 3474.1127456389368, 0.0, 0.04800000227987766, 0.9760000463575125, 0.0, 0.0, 0.0, 0.0, 0.0, 1.7564694707980928E9, 0.0, 2025-08-29 09:11:10.798
45.0, -4445.2581769828685, 3538.657809024211, 3417.664565657731, 3687.5394863602705, 0.0, 0.04800000227987766, 0.9760000463575125, 0.0, 0.0, 0.0, 0.0, 0.0, 1.7564694707987475E9, 0.0, 2025-08-29 09:11:10.798
45.0, -4251.292005680967, 3352.4351005805656, 3533.3321914873086, 3621.745296389796, 0.0, 0.04800000227987766, 0.9760000463575125, 0.0, 0.0, 0.0, 0.0, 0.0, 1.7564694707987475E9, 0.0, 2025-08-29 09:11:10.798
46.0, -4414.235706850421, 3144.881872739643, 3652.872483721003, 3584.9521606257185, 0.0, 0.04800000227987766, 0.9760000463575125, 0.0, 0.0, 0.0, 0.0, 0.0, 1.7564694708123984E9, 0.0, 2025-08-29 09:11:10.812
46.0, -4531.2983153634705, 3031.043057988398, 3718.094468998257, 3444.851768385619, 0.0, 0.04800000227987766, 0.9760000463575125, 0.0, 0.0, 0.0, 0.0, 0.0, 1.7564694708123984E9, 0.0, 2025-08-29 09:11:10.812
47.0, -4756.59923844412, 3150.0616341782734, 3729.9088129582815, 3444.874207785353, 0.0, 0.04800000227987766, 0.9760000463575125, 0.0, 0.0, 0.0, 0.0, 0.0, 1.756469470828138E9, 0.0, 2025-08-29 09:11:10.828
47.0, -4834.097445325926, 2911.035278260242, 3757.438216532115, 3682.4289130708203, 0.0, 0.04800000227987766, 0.9760000463575125, 0.0, 0.0, 0.0, 0.0, 0.0, 1.756469470828138E9, 0.0, 2025-08-29 09:11:10.828
48.0, -5019.125255733728, 3116.59700937476, 3674.206743018236, 3785.1957540032454, 0.0, 0.04800000227987766, 0.9760000463575125, 0.0, 0.0, 0.0, 0.0, 0.0, 1.756469470828749E9, 0.0, 2025-08-29 09:11:10.828
48.0, -4835.533566908911, 3341.226620413363, 3537.9677974823862, 3813.5479355673306, 0.0, 0.04800000227987766, 0.9760000463575125, 0.0, 0.0, 0.0, 0.0, 0.0, 1.756469470828749E9, 0.0, 2025-08-29 09:11:10.828
49.0, -4775.635329218581, 3423.9195483336225, 3443.522233951371, 3930.9209557767026, 0.0, 0.04800000227987766, 0.9760000463575125, 0.0, 0.0, 0.0, 0.0, 0.0, 1.7564694708587465E9, 0.0, 2025-08-29 09:11:10.858
49.0, -4969.683778319508, 3343.8146311827004, 3502.248013005592, 3999.056323119439, 0.0, 0.04800000227987766, 0.9760000463575125, 0.0, 0.0, 0.0, 0.0, 0.0, 1.7564694708587465E9, 0.0, 2025-08-29 09:11:10.858
50.0, -4945.744678703137, 3504.9276513238437, 3385.570614187978, 4152.26693465421, 0.0, 0.04800000227987766, 0.9760000463575125, 0.0, 0.0, 0.0, 0.0, 0.0, 1.7564694708594768E9, 0.0, 2025-08-29 09:11:10.859
50.0, -4734.922778300941, 3338.5451121451333, 3497.412322362885, 4092.060155217536, 0.0, 0.04800000227987766, 0.9760000463575125, 0.0, 0.0, 0.0, 0.0, 0.0, 1.7564694708594768E9, 0.0, 2025-08-29 09:11:10.859
51.0, -4901.838253223337, 3155.65278461203, 3667.729236294981, 4101.239739658777, 0.0, 0.04800000227987766, 0.9760000463575125, 0.0, 0.0, 0.0, 0.0, 0.0, 1.7564694708602288E9, 0.0, 2025-08-29 09:11:10.860
51.0, -5006.1590225873515, 3016.4873673608527, 3715.5719064781442, 3933.594984245021, 0.0, 0.04800000227987766, 0.9760000463575125, 0.0, 0.0, 0.0, 0.0, 0.0, 1.7564694708602288E9, 0.0, 2025-08-29 09:11:10.860
52.0, -5240.981730955187, 3153.248028940521, 3722.4458425967023, 3932.0223563136533, 0.0, 0.04800000227987766, 0.9760000463575125, 0.0, 0.0, 0.0, 0.0, 0.0, 1.7564694708723671E9, 0.0, 2025-08-29 09:11:10.872
52.0, -5319.512150224764, 2936.788229355123, 3777.141879448667, 3716.142241221387, 0.0, 0.04800000227987766, 0.9760000463575125, 0.0, 0.0, 0.0, 0.0, 0.0, 1.7564694708723671E9, 0.0, 2025-08-29 09:11:10.872
53.0, -5520.311118745711, 3136.4670978393406, 3691.9394786581397, 3819.5074661467224, 0.0, 0.04800000227987766, 0.9760000463575125, 0.0, 0.0, 0.0, 0.0, 0.0, 1.7564694709044306E9, 0.0, 2025-08-29 09:11:10.904
53.0, -5325.518429553602, 3317.5567935938016, 3524.247974494938, 3809.729497712571, 0.0, 0.04800000227987766, 0.9760000463575125, 0.0, 0.0, 0.0, 0.0, 0.0, 1.7564694709044306E9, 0.0, 2025-08-29 09:11:10.904
54.0, -5277.412096423563, 3426.5150389028713, 3445.7830034745857, 3946.318123894278, 0.0, 0.04800000227987766, 0.9760000463575125, 0.0, 0.0, 0.0, 0.0, 0.0, 1.7564694709051604E9, 0.0, 2025-08-29 09:11:10.905
54.0, -5467.978698665742, 3361.571676172316, 3517.695669772569, 4025.325380408205, 0.0, 0.04800000227987766, 0.9760000463575125, 0.0, 0.0, 0.0, 0.0, 0.0, 1.7564694709051604E9, 0.0, 2025-08-29 09:11:10.905
55.0, -5439.611557501834, 3526.3759775697254, 3407.79122977471, 4191.161894193385, 0.0, 0.04800000227987766, 0.9760000463575125, 0.0, 0.0, 0.0, 0.0, 0.0, 1.756469470905878E9, 0.0, 2025-08-29 09:11:10.905
55.0, -5222.293450876605, 3348.994392621331, 3516.2184092900716, 4118.041240209714, 0.0, 0.04800000227987766, 0.9760000463575125, 0.0, 0.0, 0.0, 0.0, 0.0, 1.756469470905878E9, 0.0, 2025-08-29 09:11:10.905
56.0, -5392.425239760894, 3180.6727153155953, 3712.6024259133264, 4144.244849249255, 0.0, 0.04800000227987766, 0.9760000463575125, 0.0, 0.0, 0.0, 0.0, 0.0, 1.7564694709066832E9, 0.0, 2025-08-29 09:11:10.906
56.0, -5497.819360412192, 3035.2915843380615, 3756.3199864453636, 3970.0926679125987, 0.0, 0.04800000227987766, 0.9760000463575125, 0.0, 0.0, 0.0, 0.0, 0.0, 1.7564694709066832E9, 0.0, 2025-08-29 09:11:10.906
57.0, -5735.753665543161, 3147.9224114036188, 3733.800178862177, 3939.2441031280905, 0.0, 0.04800000227987766, 0.9760000463575125, 0.0, 0.0, 0.0, 0.0, 0.0, 1.7564694709173753E9, 0.0, 2025-08-29 09:11:10.917
57.0, -5822.448286416009, 2950.8427733886056, 3827.8549228478223, 3754.0274277725257, 0.0, 0.04800000227987766, 0.9760000463575125, 0.0, 0.0, 0.0, 0.0, 0.0, 1.7564694709173753E9, 0.0, 2025-08-29 09:11:10.917
58.0, -6001.5184361943975, 3146.6097065191716, 3745.218093426898, 3858.25282968767, 0.0, 0.04800000227987766, 0.9760000463575125, 0.0, 0.0, 0.0, 0.0, 0.0, 1.7564694709488063E9, 0.0, 2025-08-29 09:11:10.948
58.0, -5812.361776235513, 3317.986882088706, 3542.8838959741406, 3818.6528990068473, 0.0, 0.04800000227987766, 0.9760000463575125, 0.0, 0.0, 0.0, 0.0, 0.0, 1.7564694709488063E9, 0.0, 2025-08-29 09:11:10.948
59.0, -5745.3764281291515, 3418.713607595302, 3447.140587158501, 3932.933021952864, 0.0, 0.04800000227987766, 0.9760000463575125, 0.0, 0.0, 0.0, 0.0, 0.0, 1.7564694709495776E9, 0.0, 2025-08-29 09:11:10.949
59.0, -5947.383384335786, 3379.497016659938, 3545.868336138781, 4041.9641953110695, 0.0, 0.04800000227987766, 0.9760000463575125, 0.0, 0.0, 0.0, 0.0, 0.0, 1.7564694709495776E9, 0.0, 2025-08-29 09:11:10.949
60.0, -5924.345600608736, 3498.0200561056845, 3387.3190174172632, 4153.0897126444615, 0.0, 0.04800000227987766, 0.9760000463575125, 0.0, 0.0, 0.0, 0.0, 0.0, 1.756469470950292E9, 0.0, 2025-08-29 09:11:10.950
60.0, -5713.710695204325, 3334.0834114979953, 3484.059009571094, 4070.9185007680207, 0.0, 0.04800000227987766, 0.9760000463575125, 0.0, 0.0, 0.0, 0.0, 0.0, 1.756469470950292E9, 0.0, 2025-08-29 09:11:10.950
61.0, -5884.541845380329, 3188.9939927170053, 3707.819093869999, 4130.654052810278, 0.0, 0.04800000227987766, 0.9760000463575125, 0.0, 0.0, 0.0, 0.0, 0.0, 1.7564694709623864E9, 0.0, 2025-08-29 09:11:10.962
61.0, -5995.807608962059, 3021.0949241062626, 3730.9597248458304, 3940.1585086672567, 0.0, 0.04800000227987766, 0.9760000463575125, 0.0, 0.0, 0.0, 0.0, 0.0, 1.7564694709623864E9, 0.0, 2025-08-29 09:11:10.962
62.0, -6232.208555111196, 3122.9473594995216, 3687.6946922084317, 3895.8238646425307, 0.0, 0.04800000227987766, 0.9760000463575125, 0.0, 0.0, 0.0, 0.0, 0.0, 1.7564694709780855E9, 0.0, 2025-08-29 09:11:10.978
62.0, -6312.91933605494, 2950.2855282952078, 3804.6226643230766, 3730.3650807528757, 0.0, 0.04800000227987766, 0.9760000463575125, 0.0, 0.0, 0.0, 0.0, 0.0, 1.7564694709780855E9, 0.0, 2025-08-29 09:11:10.978
63.0, -6486.256219201256, 3143.445751156658, 3728.3548845266923, 3847.1154076196253, 0.0, 0.04800000227987766, 0.9760000463575125, 0.0, 0.0, 0.0, 0.0, 0.0, 1.756469470978794E9, 0.0, 2025-08-29 09:11:10.978
63.0, -6307.776973615866, 3303.5209490600973, 3512.848759429995, 3790.7420256375335, 0.0, 0.04800000227987766, 0.9760000463575125, 0.0, 0.0, 0.0, 0.0, 0.0, 1.756469470978794E9, 0.0, 2025-08-29 09:11:10.978
64.0, -6248.305084520485, 3436.2911373870447, 3468.2448426084593, 3959.7593243350275, 0.0, 0.04800000227987766, 0.9760000463575125, 0.0, 0.0, 0.0, 0.0, 0.0, 1.7564694710087574E9, 0.0, 2025-08-29 09:11:11.008
64.0, -6442.6826448175125, 3404.569305962883, 3593.181810478214, 4080.8217558506876, 0.0, 0.04800000227987766, 0.9760000463575125, 0.0, 0.0, 0.0, 0.0, 0.0, 1.7564694710087574E9, 0.0, 2025-08-29 09:11:11.008
65.0, -6417.744991912972, 3513.4321838230826, 3426.9582170476206, 4182.960293590557, 0.0, 0.04800000227987766, 0.9760000463575125, 0.0, 0.0, 0.0, 0.0, 0.0, 1.756469471009539E9, 0.0, 2025-08-29 09:11:11.009
65.0, -6207.779528600629, 3357.244611923583, 3514.7000099080615, 4098.919131736271, 0.0, 0.04800000227987766, 0.9760000463575125, 0.0, 0.0, 0.0, 0.0, 0.0, 1.756469471009539E9, 0.0, 2025-08-29 09:11:11.009
66.0, -6373.281321339775, 3229.7663820339367, 3276.2589483330958, 4188.087696429808, 0.0, 0.04800000227987766, 0.9760000463575125, 0.0, 0.0, 0.0, 0.0, 0.0, 1.7564694710102513E9, 0.0, 2025-08-29 09:11:11.010
66.0, -6486.41703489935, 3056.6651125848293, 3301.1685519879684, 3988.032968000043, 0.0, 0.04800000227987766, 0.9760000463575125, 0.0, 0.0, 0.0, 0.0, 0.0, 1.7564694710102513E9, 0.0, 2025-08-29 09:11:11.010
67.0, -6719.373533189297, 3144.1039735488594, 3232.1543081556447, 3920.8512751460075, 0.0, 0.04800000227987766, 0.9760000463575125, 0.0, 0.0, 0.0, 0.0, 0.0, 1.756469471022365E9, 0.0, 2025-08-29 09:11:11.022
67.0, -6797.496303363703, 2978.4170557619072, 3356.2591482852586, 3781.1192630515434, 0.0, 0.04800000227987766, 0.9760000463575125, 0.0, 0.0, 0.0, 0.0, 0.0, 1.756469471022365E9, 0.0, 2025-08-29 09:11:11.022
68.0, -6980.927176490426, 3170.2720535388216, 3300.616916744504, 3898.8756230063736, 0.0, 0.04800000227987766, 0.9760000463575125, 0.0, 0.0, 0.0, 0.0, 0.0, 1.7564694710381427E9, 0.0, 2025-08-29 09:11:11.038
68.0, -6801.819627712481, 3313.9664896363392, 3055.558102197945, 3820.9678970794193, 0.0, 0.04800000227987766, 0.9760000463575125, 0.0, 0.0, 0.0, 0.0, 0.0, 1.7564694710381427E9, 0.0, 2025-08-29 09:11:11.038
69.0, -6735.312986800447, 3445.1247810823843, 2997.258671738673, 3973.3875197735615, 0.0, 0.04800000227987766, 0.9760000463575125, 0.0, 0.0, 0.0, 0.0, 0.0, 1.7564694710388172E9, 0.0, 2025-08-29 09:11:11.038
69.0, -6924.738919556141, 3429.37980226893, 3142.9820035621524, 4131.871390245855, 0.0, 0.04800000227987766, 0.9760000463575125, 0.0, 0.0, 0.0, 0.0, 0.0, 1.7564694710388172E9, 0.0, 2025-08-29 09:11:11.038
70.0, -6908.892963443883, 3512.6019260329194, 2938.499233584851, 4193.858362061437, 0.0, 0.04800000227987766, 0.9760000463575125, 0.0, 0.0, 0.0, 0.0, 0.0, 1.7564694710524144E9, 0.0, 2025-08-29 09:11:11.052
70.0, -6697.685853346251, 3360.1692136889324, 3036.7763246204704, 4122.271067059599, 0.0, 0.04800000227987766, 0.9760000463575125, 0.0, 0.0, 0.0, 0.0, 0.0, 1.7564694710524144E9, 0.0, 2025-08-29 09:11:11.052
71.0, -6865.655980056152, 3244.15003726352, 2826.2087374152616, 4233.47512229206, 0.0, 0.04800000227987766, 0.9760000463575125, 0.0, 0.0, 0.0, 0.0, 0.0, 1.7564694710681589E9, 0.0, 2025-08-29 09:11:11.068
71.0, -6972.00377519615, 3058.9801106574014, 2839.9323003026657, 4024.4782930682413, 0.0, 0.04800000227987766, 0.9760000463575125, 0.0, 0.0, 0.0, 0.0, 0.0, 1.7564694710681589E9, 0.0, 2025-08-29 09:11:11.068
72.0, -7207.884875251446, 3135.8799335462973, 2745.56527467072, 3926.090874983929, 0.0, 0.04800000227987766, 0.9760000463575125, 0.0, 0.0, 0.0, 0.0, 0.0, 1.7564694710688455E9, 0.0, 2025-08-29 09:11:11.068
72.0, -7287.137095212471, 2996.884681743104, 2895.890553389676, 3803.4689051867463, 0.0, 0.04800000227987766, 0.9760000463575125, 0.0, 0.0, 0.0, 0.0, 0.0, 1.7564694710688455E9, 0.0, 2025-08-29 09:11:11.068
73.0, -7464.595348109957, 3191.5146852871403, 2856.090538061224, 3930.7507903287187, 0.0, 0.04800000227987766, 0.9760000463575125, 0.0, 0.0, 0.0, 0.0, 0.0, 1.7564694710824282E9, 0.0, 2025-08-29 09:11:11.082
73.0, -7288.509638496209, 3307.9676901074126, 3067.581880555488, 3825.504395725671, 0.0, 0.04800000227987766, 0.9760000463575125, 0.0, 0.0, 0.0, 0.0, 0.0, 1.7564694710824282E9, 0.0, 2025-08-29 09:11:11.082
74.0, -7221.834702086169, 3449.395746831782, 3025.865166499745, 3989.5700668818317, 0.0, 0.04800000227987766, 0.9760000463575125, 0.0, 0.0, 0.0, 0.0, 0.0, 1.7564694710981188E9, 0.0, 2025-08-29 09:11:11.098
74.0, -7418.549699855503, 3439.941279743798, 3193.5267514633015, 4162.748004280031, 0.0, 0.04800000227987766, 0.9760000463575125, 0.0, 0.0, 0.0, 0.0, 0.0, 1.7564694710981188E9, 0.0, 2025-08-29 09:11:11.098
75.0, -7391.442904976662, 3523.4438960044645, 2970.4753782059997, 4219.9666036521085, 0.0, 0.04800000227987766, 0.9760000463575125, 0.0, 0.0, 0.0, 0.0, 0.0, 1.7564694710988011E9, 0.0, 2025-08-29 09:11:11.098
75.0, -7191.997780239675, 3357.891614615917, 3064.578740891069, 4130.827958158217, 0.0, 0.04800000227987766, 0.9760000463575125, 0.0, 0.0, 0.0, 0.0, 0.0, 1.7564694710988011E9, 0.0, 2025-08-29 09:11:11.098
76.0, -7358.8160177632235, 3265.2355932136998, 2876.9255207143724, 4267.889681684319, 0.0, 0.04800000227987766, 0.9760000463575125, 0.0, 0.0, 0.0, 0.0, 0.0, 1.7564694711124501E9, 0.0, 2025-08-29 09:11:11.112
76.0, -7469.524536251556, 3056.7623499836773, 2861.6442894954234, 4047.4749378957786, 0.0, 0.04800000227987766, 0.9760000463575125, 0.0, 0.0, 0.0, 0.0, 0.0, 1.7564694711124501E9, 0.0, 2025-08-29 09:11:11.112
77.0, -7703.229014532641, 3128.2318381369114, 2750.1522619663738, 3931.928858814761, 0.0, 0.04800000227987766, 0.9760000463575125, 0.0, 0.0, 0.0, 0.0, 0.0, 1.756469471128126E9, 0.0, 2025-08-29 09:11:11.128
77.0, -7773.539133699611, 3000.7517382972874, 2919.1957399635576, 3824.7676354344003, 0.0, 0.04800000227987766, 0.9760000463575125, 0.0, 0.0, 0.0, 0.0, 0.0, 1.756469471128126E9, 0.0, 2025-08-29 09:11:11.128
78.0, -7958.948413902894, 3194.098956156522, 2868.209683867637, 3949.330613308586, 0.0, 0.04800000227987766, 0.9760000463575125, 0.0, 0.0, 0.0, 0.0, 0.0, 1.7564694711288116E9, 0.0, 2025-08-29 09:11:11.128
78.0, -7779.762327225879, 3304.4222649494186, 3047.1451972476207, 3812.990690473933, 0.0, 0.04800000227987766, 0.9760000463575125, 0.0, 0.0, 0.0, 0.0, 0.0, 1.7564694711288116E9, 0.0, 2025-08-29 09:11:11.128
79.0, -7718.0764173567295, 3462.3956390777603, 3038.448059900664, 4011.9346686168574, 0.0, 0.04800000227987766, 0.9760000463575125, 0.0, 0.0, 0.0, 0.0, 0.0, 1.7564694711424477E9, 0.0, 2025-08-29 09:11:11.142
79.0, -7910.172638680786, 3457.7843424323946, 3214.0083135706373, 4197.888104263693, 0.0, 0.04800000227987766, 0.9760000463575125, 0.0, 0.0, 0.0, 0.0, 0.0, 1.7564694711424477E9, 0.0, 2025-08-29 09:11:11.142
80.0, -7893.2084524817765, 3512.5420876336284, 2982.79647861002, 4226.578746773768, 0.0, 0.04800000227987766, 0.9760000463575125, 0.0, 0.0, 0.0, 0.0, 0.0, 1.756469471158144E9, 0.0, 2025-08-29 09:11:11.158
80.0, -7673.3322542868555, 3350.1911606071517, 3043.730668588076, 4126.149343313649, 0.0, 0.04800000227987766, 0.9760000463575125, 0.0, 0.0, 0.0, 0.0, 0.0, 1.756469471158144E9, 0.0, 2025-08-29 09:11:11.158
81.0, -7848.954216306098, 3276.1074823848903, 2899.243373699952, 4302.824087170418, 0.0, 0.04800000227987766, 0.9760000463575125, 0.0, 0.0, 0.0, 0.0, 0.0, 1.7564694711588223E9, 0.0, 2025-08-29 09:11:11.158
81.0, -7958.9259745031595, 3057.708544672467, 2877.192923561204, 4059.5622945525683, 0.0, 0.04800000227987766, 0.9760000463575125, 0.0, 0.0, 0.0, 0.0, 0.0, 1.7564694711588223E9, 0.0, 2025-08-29 09:11:11.158
82.0, -8191.788975294214, 3118.287444154732, 2741.0886144237593, 3929.819555239752, 0.01600000075995922, 0.04800000227987766, 0.9760000463575125, 0.0, 0.0, 0.0, 0.0, 0.0, 1.7564694711724293E9, 0.0, 2025-08-29 09:11:11.172
82.0, -8270.401672362816, 3020.5171095631085, 2949.954547149129, 3858.6922679324634, 0.01600000075995922, 0.04800000227987766, 0.9760000463575125, 0.0, 0.0, 0.0, 0.0, 0.0, 1.7564694711724293E9, 0.0, 2025-08-29 09:11:11.172
83.0, -8442.545527423266, 3206.9118534047157, 2903.4788103997707, 3984.141602096148, 0.01600000075995922, 0.04800000227987766, 0.9760000463575125, 0.0, 0.0, 0.0, 0.0, 0.0, 1.7564694711881316E9, 0.0, 2025-08-29 09:11:11.188
83.0, -8269.07026797859, 3285.13186097797, 3054.9746778048575, 3811.5620486908592, 0.01600000075995922, 0.04800000227987766, 0.9760000463575125, 0.0, 0.0, 0.0, 0.0, 0.0, 1.7564694711881316E9, 0.0, 2025-08-29 09:11:11.188
84.0, -8211.28133386327, 3467.6277591157705, 3048.4466824322008, 4025.3571695578285, 0.01600000075995922, 0.04800000227987766, 0.9760000463575125, 0.0, 0.0, 0.0, 0.0, 0.0, 1.7564694711888375E9, 0.0, 2025-08-29 09:11:11.188
