Sample Index, EXG Channel 0, EXG Channel 1, EXG Channel 2, EXG Channel 3, Accel Channel 0, Accel Channel 1, Accel Channel 2, Other, Other, Other, Other, Other, Timestamp, Marker Channel, Timestamp (Formatted)
61.0, 144.98844148218632, -209.0473178732209, -52.18282408174127, -47.21249704062939, 0.0, 0.04800000227987766, 0.0, 0.0, 0.0, 0.0, 0.0, 0.0, 1.756499171864493E9, 0.0, 2025-08-29 17:26:11.864
61.0, 73.97522112354636, -94.06970358546823, 86.63852237351239, -97.02422455046326, 0.0, 0.04800000227987766, 0.0, 0.0, 0.0, 0.0, 0.0, 0.0, 1.756499171864493E9, 0.0, 2025-08-29 17:26:11.864
0.0, 408.55415095947683, 356.5639317254536, -226.30508621875197, -87.1546285673976, 0.0, 0.04800000227987766, 0.0, 0.0, 0.0, 0.0, 0.0, 0.0, 1.756499171885378E9, 0.0, 2025-08-29 17:26:11.885
1.0, 339.2014461811632, 581.5955820092931, -117.83676780387759, 59.93189678993076, 0.0, 0.04800000227987766, 0.0, 0.0, 0.0, 0.0, 0.0, 0.0, 1.7564991718986626E9, 0.0, 2025-08-29 17:26:11.898
1.0, 115.87893017707393, 536.5765362926759, -90.42330112867057, 127.20147729292512, 0.0, 0.04800000227987766, 0.0, 0.0, 0.0, 0.0, 0.0, 0.0, 1.7564991718986626E9, 0.0, 2025-08-29 17:26:11.898
2.0, 209.85139636369422, 535.6434312537313, -209.40821821894497, -50.33157360367477, 0.0, 0.04800000227987766, 0.0, 0.0, 0.0, 0.0, 0.0, 0.0, 1.7564991719154034E9, 0.0, 2025-08-29 17:26:11.915
2.0, 67.73519804747775, 761.0640311329626, -172.1962136598304, -13.224286243319511, 0.0, 0.04800000227987766, 0.0, 0.0, 0.0, 0.0, 0.0, 0.0, 1.7564991719154034E9, 0.0, 2025-08-29 17:26:11.915
3.0, 184.01990736974403, 742.9703951473348, -71.48818765301257, 149.4464022293687, 0.0, 0.04800000227987766, 0.0, 0.0, 0.0, 0.0, 0.0, 0.0, 1.7564991719161756E9, 0.0, 2025-08-29 17:26:11.916
3.0, 233.04625588888302, 516.8392142765224, -177.24881849996746, 4.5290188463404775, 0.0, 0.04800000227987766, 0.0, 0.0, 0.0, 0.0, 0.0, 0.0, 1.7564991719161756E9, 0.0, 2025-08-29 17:26:11.916
4.0, 475.416082367301, 565.3139275521971, -214.97318935301155, -67.70714879781008, 0.0, 0.04800000227987766, 0.0, 0.0, 0.0, 0.0, 0.0, 0.0, 1.7564991719285133E9, 0.0, 2025-08-29 17:26:11.928
4.0, 366.63735225610435, 554.0381291857921, -88.20180055499077, 110.60006138961762, 0.0, 0.04800000227987766, 0.0, 0.0, 0.0, 0.0, 0.0, 0.0, 1.7564991719285133E9, 0.0, 2025-08-29 17:26:11.928
5.0, 535.4190372563899, 345.1291876109317, -129.44541726633906, 76.02468629926443, 0.0, 0.04800000227987766, 0.0, 0.0, 0.0, 0.0, 0.0, 0.0, 1.756499171944234E9, 0.0, 2025-08-29 17:26:11.944
5.0, 397.2933121928945, 349.8788605546579, -221.589072374627, -82.91732191760093, 0.0, 0.04800000227987766, 0.0, 0.0, 0.0, 0.0, 0.0, 0.0, 1.756499171944234E9, 0.0, 2025-08-29 17:26:11.944
6.0, 339.62031497620046, 572.962022961583, -116.9055327149108, 59.011881400831044, 0.0, 0.04800000227987766, 0.0, 0.0, 0.0, 0.0, 0.0, 0.0, 1.756499171944974E9, 0.0, 2025-08-29 17:26:11.944
6.0, 124.73501327214763, 542.7043623700738, -82.11698332708329, 126.55447460059077, 0.0, 0.04800000227987766, 0.0, 0.0, 0.0, 0.0, 0.0, 0.0, 1.756499171944974E9, 0.0, 2025-08-29 17:26:11.944
7.0, 193.6239704559557, 520.6894412809052, -213.9858557647094, -62.04494026489556, 0.0, 0.04800000227987766, 0.0, 0.0, 0.0, 0.0, 0.0, 0.0, 1.7564991719585028E9, 0.0, 2025-08-29 17:26:11.958
7.0, 59.73929194221273, 754.8165282569826, -161.97880698088557, -16.15262790862471, 0.0, 0.04800000227987766, 0.0, 0.0, 0.0, 0.0, 0.0, 0.0, 1.7564991719585028E9, 0.0, 2025-08-29 17:26:11.958
8.0, 199.0730046913959, 746.7645236523822, -63.44740274827927, 142.77816060837358, 0.0, 0.04800000227987766, 0.0, 0.0, 0.0, 0.0, 0.0, 0.0, 1.7564991719742699E9, 0.0, 2025-08-29 17:26:11.974
8.0, 237.91934553114697, 518.3071250091307, -167.61857611406595, 2.4683339707553387, 0.0, 0.04800000227987766, 0.0, 0.0, 0.0, 0.0, 0.0, 0.0, 1.7564991719742699E9, 0.0, 2025-08-29 17:26:11.974
9.0, 471.4031697148457, 553.1611226461828, -194.29902239795774, -68.24943429138511, 0.0, 0.04800000227987766, 0.0, 0.0, 0.0, 0.0, 0.0, 0.0, 1.7564991719749618E9, 0.0, 2025-08-29 17:26:11.974
9.0, 370.71384320780635, 556.9552511512302, -83.0743977157399, 107.84375512227416, 0.0, 0.04800000227987766, 0.0, 0.0, 0.0, 0.0, 0.0, 0.0, 1.7564991719749618E9, 0.0, 2025-08-29 17:26:11.974
10.0, 534.5214612670243, 349.0074638649821, -127.90083858463913, 59.97303568944335, 0.0, 0.04800000227987766, 0.9760000463575125, 0.0, 0.0, 0.0, 0.0, 0.0, 1.7564991719885273E9, 0.0, 2025-08-29 17:26:11.988
10.0, 391.1823156652972, 344.51958391815424, -220.5830392865464, -92.26333190687001, 0.0, 0.04800000227987766, 0.9760000463575125, 0.0, 0.0, 0.0, 0.0, 0.0, 1.7564991719885273E9, 0.0, 2025-08-29 17:26:11.988
11.0, 326.347410033457, 566.1030464428477, -115.56290863081813, 43.259422787465155, 0.0, 0.03200000151991844, 0.9760000463575125, 0.0, 0.0, 0.0, 0.0, 0.0, 1.7564991720043075E9, 0.0, 2025-08-29 17:26:12.004
11.0, 130.36730260541663, 541.387917585671, -94.53345117997378, 104.17491326574236, 0.0, 0.03200000151991844, 0.9760000463575125, 0.0, 0.0, 0.0, 0.0, 0.0, 1.7564991720043075E9, 0.0, 2025-08-29 17:26:12.004
12.0, 182.71842218516394, 515.0795913473703, -216.67858373280615, -69.87255087215453, 0.0, 0.03200000151991844, 0.9760000463575125, 0.0, 0.0, 0.0, 0.0, 0.0, 1.756499172005008E9, 0.0, 2025-08-29 17:26:12.005
12.0, 43.56422463385388, 746.8468014514074, -170.01211208570749, -22.611435132101178, 0.0, 0.03200000151991844, 0.9760000463575125, 0.0, 0.0, 0.0, 0.0, 0.0, 1.756499172005008E9, 0.0, 2025-08-29 17:26:12.005
13.0, 201.2234471659176, 750.4445852087811, -73.86302412487566, 128.9480105722323, 0.0, 0.03200000151991844, 0.9760000463575125, 0.0, 0.0, 0.0, 0.0, 0.0, 1.7564991720185468E9, 0.0, 2025-08-29 17:26:12.018
13.0, 230.80979571538046, 516.0669249356724, -175.20683312416077, -2.2364601735025644, 0.0, 0.03200000151991844, 0.9760000463575125, 0.0, 0.0, 0.0, 0.0, 0.0, 1.7564991720185468E9, 0.0, 2025-08-29 17:26:12.018
14.0, 450.3325733644888, 547.1473635174334, -209.83082691393793, -81.62705643288791, 0.0, 0.03200000151991844, 0.9760000463575125, 0.0, 0.0, 0.0, 0.0, 0.0, 1.7564991720340364E9, 0.0, 2025-08-29 17:26:12.034
14.0, 372.27338148932904, 559.5283023207448, -87.4126816643402, 104.83313565794379, 0.0, 0.03200000151991844, 0.9760000463575125, 0.0, 0.0, 0.0, 0.0, 0.0, 1.7564991720340364E9, 0.0, 2025-08-29 17:26:12.034
15.0, 532.270041493699, 353.7945358082652, -130.42527105472982, 56.573466629721224, 0.0, 0.03200000151991844, 0.9760000463575125, 0.0, 0.0, 0.0, 0.0, 0.0, 1.756499172049254E9, 0.0, 2025-08-29 17:26:12.049
15.0, 370.4819694105536, 334.72852583415806, -227.57291230373085, -95.07947657350451, 0.0, 0.03200000151991844, 0.9760000463575125, 0.0, 0.0, 0.0, 0.0, 0.0, 1.756499172049254E9, 0.0, 2025-08-29 17:26:12.049
16.0, 323.1497955713421, 562.2920883879997, -122.48920334875584, 44.822700968943536, 0.0, 0.03200000151991844, 0.9760000463575125, 0.0, 0.0, 0.0, 0.0, 0.0, 1.756499172049982E9, 0.0, 2025-08-29 17:26:12.049
16.0, 147.87751419795677, 561.1009302521124, -90.88704872317612, 113.18059235904366, 0.0, 0.03200000151991844, 0.9760000463575125, 0.0, 0.0, 0.0, 0.0, 0.0, 1.756499172049982E9, 0.0, 2025-08-29 17:26:12.049
17.0, 185.15683695627376, 524.1264093401842, -212.96112317685038, -67.61739119887352, 0.0, 0.03200000151991844, 0.9760000463575125, 0.0, 0.0, 0.0, 0.0, 0.0, 1.7564991720643747E9, 0.0, 2025-08-29 17:26:12.064
17.0, 37.68136200355366, 731.7002066308632, -160.4865868985653, -20.427333557978272, 0.0, 0.03200000151991844, 0.9760000463575125, 0.0, 0.0, 0.0, 0.0, 0.0, 1.7564991720643747E9, 0.0, 2025-08-29 17:26:12.064
18.0, 214.57862990768626, 754.8651469564065, -69.23302797973156, 133.79866081476212, 0.0, 0.03200000151991844, 0.9760000463575125, 0.0, 0.0, 0.0, 0.0, 0.0, 1.7564991720649667E9, 0.0, 2025-08-29 17:26:12.064
18.0, 229.69156562862918, 516.3287179325707, -182.66793353576213, -14.391135029494762, 0.0, 0.03200000151991844, 0.9760000463575125, 0.0, 0.0, 0.0, 0.0, 0.0, 1.7564991720649667E9, 0.0, 2025-08-29 17:26:12.064
19.0, 437.34390081837773, 534.3045470695943, -204.7595225740224, -72.95048853568733, 0.0, 0.03200000151991844, 0.9760000463575125, 0.0, 0.0, 0.0, 0.0, 0.0, 1.756499172078538E9, 0.0, 2025-08-29 17:26:12.078
19.0, 371.86199249420315, 556.4054858577438, -81.91128882952034, 108.27010371722281, 0.0, 0.03200000151991844, 0.9760000463575125, 0.0, 0.0, 0.0, 0.0, 0.0, 1.756499172078538E9, 0.0, 2025-08-29 17:26:12.078
20.0, 539.7872404046357, 355.5036700880155, -130.0288416594267, 53.274874868802726, 0.0, 0.03200000151991844, 0.49600002355873585, 0.0, 0.0, 0.0, 0.0, 0.0, 1.756499172094238E9, 0.0, 2025-08-29 17:26:12.094
20.0, 358.4694107528776, 324.8177909515798, -228.2161750961095, -104.21231226529926, 0.0, 0.03200000151991844, 0.49600002355873585, 0.0, 0.0, 0.0, 0.0, 0.0, 1.756499172094238E9, 0.0, 2025-08-29 17:26:12.094
21.0, 324.25306605827063, 555.4929502685554, -124.73688322212547, 43.45015768520534, 0.0, 0.03200000151991844, 0.49600002355873585, 0.0, 0.0, 0.0, 0.0, 0.0, 1.7564991720950084E9, 0.0, 2025-08-29 17:26:12.095
21.0, 144.7210386353545, 556.5401222561486, -95.00467857439071, 105.92892634496093, 0.0, 0.03200000151991844, 0.49600002355873585, 0.0, 0.0, 0.0, 0.0, 0.0, 1.7564991720950084E9, 0.0, 2025-08-29 17:26:12.095
22.0, 172.55711400555447, 506.65920659713447, -220.41100388858467, -73.13748353347182, 0.0, 0.03200000151991844, 0.49600002355873585, 0.0, 0.0, 0.0, 0.0, 0.0, 1.756499172108514E9, 0.0, 2025-08-29 17:26:12.108
22.0, 24.109265064354986, 724.0016225720756, -167.3006846178323, -20.229118860326707, 0.0, 0.03200000151991844, 0.49600002355873585, 0.0, 0.0, 0.0, 0.0, 0.0, 1.756499172108514E9, 0.0, 2025-08-29 17:26:12.108
23.0, 221.70687922323123, 764.4411607929505, -66.28224691469222, 139.45338954776525, 0.0, 0.03200000151991844, 0.49600002355873585, 0.0, 0.0, 0.0, 0.0, 0.0, 1.756499172124261E9, 0.0, 2025-08-29 17:26:12.124
23.0, 224.51928398991004, 1004.1537883528508, -182.50711783766747, -7.3451635129749775, 0.0, 0.03200000151991844, 0.49600002355873585, 0.0, 0.0, 0.0, 0.0, 0.0, 1.756499172124261E9, 0.0, 2025-08-29 17:26:12.124
24.0, 427.6912190327421, 1015.4950349684805, -205.92637136019766, -76.6642091916874, 0.0, 0.03200000151991844, 0.49600002355873585, 0.0, 0.0, 0.0, 0.0, 0.0, 1.756499172125007E9, 0.0, 2025-08-29 17:26:12.125
24.0, 386.432642721571, 1056.5684862318449, -85.98777978122234, 103.05668317899108, 0.0, 0.03200000151991844, 0.49600002355873585, 0.0, 0.0, 0.0, 0.0, 0.0, 1.756499172125007E9, 0.0, 2025-08-29 17:26:12.125
25.0, 545.4905878370628, 844.3272937964648, -140.23128873854876, 37.657052653841674, 0.0, 0.03200000151991844, 0.49600002355873585, 0.0, 0.0, 0.0, 0.0, 0.0, 1.7564991721385665E9, 0.0, 2025-08-29 17:26:12.138
25.0, 351.06814874056727, 809.3405297109857, -220.6989761851728, -99.52247772086412, 0.0, 0.03200000151991844, 0.49600002355873585, 0.0, 0.0, 0.0, 0.0, 0.0, 1.7564991721385665E9, 0.0, 2025-08-29 17:26:12.138
26.0, 324.2343665584922, 1049.0849464205094, -108.07188901957124, 45.52206226065755, 0.0, 0.03200000151991844, 0.49600002355873585, 0.0, 0.0, 0.0, 0.0, 0.0, 1.756499172154261E9, 0.0, 2025-08-29 17:26:12.154
26.0, 171.29302782053128, 1063.8837305451743, -75.26548660825938, 102.11048849020153, 0.0, 0.03200000151991844, 0.49600002355873585, 0.0, 0.0, 0.0, 0.0, 0.0, 1.756499172154261E9, 0.0, 2025-08-29 17:26:12.154
27.0, 171.52490161778405, 993.1790519328788, -210.27213510870934, -82.04966512788087, 0.0, 0.03200000151991844, 0.49600002355873585, 0.0, 0.0, 0.0, 0.0, 0.0, 1.756499172154966E9, 0.0, 2025-08-29 17:26:12.154
27.0, 32.48290106514469, 1213.3712716740556, -154.01282007526606, -30.046356244012713, 0.0, 0.03200000151991844, 0.49600002355873585, 0.0, 0.0, 0.0, 0.0, 0.0, 1.756499172154966E9, 0.0, 2025-08-29 17:26:12.154
28.0, 239.63595961080864, 1261.4663851042278, -51.03093489538878, 128.20003058109432, 0.0, 0.03200000151991844, 0.49600002355873585, 0.0, 0.0, 0.0, 0.0, 0.0, 1.7564991721685686E9, 0.0, 2025-08-29 17:26:12.168
28.0, 235.5987376086414, 1505.5023370129056, -179.40674077440053, -22.413220434449613, 0.0, 0.03200000151991844, 0.49600002355873585, 0.0, 0.0, 0.0, 0.0, 0.0, 1.7564991721685686E9, 0.0, 2025-08-29 17:26:12.168
29.0, 413.94147684564814, 1495.2737106340937, -207.6916041392833, -81.97112722881138, 0.0, 0.03200000151991844, 0.49600002355873585, 0.0, 0.0, 0.0, 0.0, 0.0, 1.7564991721842513E9, 0.0, 2025-08-29 17:26:12.184
29.0, 400.60125370370224, 1559.179251126945, -67.6248709987849, 111.47893787920475, 0.0, 0.03200000151991844, 0.49600002355873585, 0.0, 0.0, 0.0, 0.0, 0.0, 1.7564991721842513E9, 0.0, 2025-08-29 17:26:12.184
30.0, 556.5663015558384, 1343.2430375353433, -134.75233530346304, 42.77697569318116, 0.0, 0.03200000151991844, 0.7360000349581242, 0.0, 0.0, 0.0, 0.0, 0.0, 1.7564991721850011E9, 0.0, 2025-08-29 17:26:12.185
30.0, 337.5540202506818, 1288.0421141893603, -233.7736664302647, -114.93834533821791, 0.0, 0.03200000151991844, 0.7360000349581242, 0.0, 0.0, 0.0, 0.0, 0.0, 1.7564991721850011E9, 0.0, 2025-08-29 17:26:12.185
31.0, 329.4309575469233, 1050.427570504602, -108.58425531350076, 36.53134276717901, 0.0, 0.04800000227987766, 0.7360000349581242, 0.0, 0.0, 0.0, 0.0, 0.0, 1.7564991722148864E9, 0.0, 2025-08-29 17:26:12.214
31.0, 177.40589429810643, 1068.8465777863748, -87.91008835844696, 100.58460930828005, 0.0, 0.04800000227987766, 0.7360000349581242, 0.0, 0.0, 0.0, 0.0, 0.0, 1.7564991722148864E9, 0.0, 2025-08-29 17:26:12.214
32.0, 157.0926276887767, 995.3706333069131, -223.42162335291505, -92.02397830970585, 0.0, 0.04800000227987766, 0.7360000349581242, 0.0, 0.0, 0.0, 0.0, 0.0, 1.7564991722156155E9, 0.0, 2025-08-29 17:26:12.215
32.0, 19.92805691389367, 1211.882791491691, -155.05999206285924, -28.696252360008657, 0.0, 0.04800000227987766, 0.7360000349581242, 0.0, 0.0, 0.0, 0.0, 0.0, 1.7564991722156155E9, 0.0, 2025-08-29 17:26:12.215
33.0, 252.41893765935674, 1275.2516563409008, -59.408310796134174, 127.63156578782946, 0.0, 0.04800000227987766, 0.7360000349581242, 0.0, 0.0, 0.0, 0.0, 0.0, 1.7564991722163932E9, 0.0, 2025-08-29 17:26:12.216
33.0, 241.8892493341118, 1506.1082008057274, -184.57902241311967, -35.68612537719309, 0.0, 0.04800000227987766, 0.7360000349581242, 0.0, 0.0, 0.0, 0.0, 0.0, 1.7564991722163932E9, 0.0, 2025-08-29 17:26:12.216
34.0, 424.6188912191428, 1506.173649054952, -196.91695236694068, -83.54936501011252, 0.0, 0.04800000227987766, 0.7360000349581242, 0.0, 0.0, 0.0, 0.0, 0.0, 1.756499172228539E9, 0.0, 2025-08-29 17:26:12.228
34.0, 414.0985526437871, 1570.5429371423088, -61.96640236582607, 108.26636381726712, 0.0, 0.04800000227987766, 0.7360000349581242, 0.0, 0.0, 0.0, 0.0, 0.0, 1.756499172228539E9, 0.0, 2025-08-29 17:26:12.228
35.0, 564.2517959647812, 1363.242152548395, -120.33128107432276, 47.683724435046315, 0.0, 0.04800000227987766, 0.7360000349581242, 0.0, 0.0, 0.0, 0.0, 0.0, 1.7564991722442117E9, 0.0, 2025-08-29 17:26:12.244
35.0, 331.9105112175457, 1286.2712715603411, -229.50644058082253, -111.00397058483213, 0.0, 0.04800000227987766, 0.7360000349581242, 0.0, 0.0, 0.0, 0.0, 0.0, 1.7564991722442117E9, 0.0, 2025-08-29 17:26:12.244
36.0, 337.9822387956083, 1055.7662776913494, -100.89128110464662, 57.65429771691561, 0.0, 0.04800000227987766, 0.7360000349581242, 0.0, 0.0, 0.0, 0.0, 0.0, 1.756499172244956E9, 0.0, 2025-08-29 17:26:12.244
36.0, 186.41344334138557, 1078.8040614183992, -80.17223535012454, 108.87222761008888, 0.0, 0.04800000227987766, 0.7360000349581242, 0.0, 0.0, 0.0, 0.0, 0.0, 1.756499172244956E9, 0.0, 2025-08-29 17:26:12.244
37.0, 158.1117504267022, 1000.7168202935718, -223.52260065171868, -91.71356661338359, 0.0, 0.04800000227987766, 0.7360000349581242, 0.0, 0.0, 0.0, 0.0, 0.0, 1.756499172258573E9, 0.0, 2025-08-29 17:26:12.258
37.0, 21.152874149382114, 1214.3604752123356, -180.58106936048716, -43.696991082280874, 0.0, 0.04800000227987766, 0.7360000349581242, 0.0, 0.0, 0.0, 0.0, 0.0, 1.756499172258573E9, 0.0, 2025-08-29 17:26:12.258
38.0, 261.7181988991797, 1277.6545420624316, -56.195736734196544, 146.67139646224678, 0.0, 0.04800000227987766, 0.7360000349581242, 0.0, 0.0, 0.0, 0.0, 0.0, 1.7564991722742207E9, 0.0, 2025-08-29 17:26:12.274
38.0, 228.73415123997256, 1497.527000357397, -171.59034986700863, -13.919907635077834, 0.0, 0.04800000227987766, 0.7360000349581242, 0.0, 0.0, 0.0, 0.0, 0.0, 1.7564991722742207E9, 0.0, 2025-08-29 17:26:12.274
39.0, 400.43856805562973, 1493.1662770090625, -213.79512086696923, -92.80561740044504, 0.0, 0.04800000227987766, 0.7360000349581242, 0.0, 0.0, 0.0, 0.0, 0.0, 1.7564991722749465E9, 0.0, 2025-08-29 17:26:12.274
39.0, 412.81950685894117, 1559.240959476214, -53.731142663396895, 115.73494402877986, 0.0, 0.04800000227987766, 0.7360000349581242, 0.0, 0.0, 0.0, 0.0, 0.0, 1.7564991722749465E9, 0.0, 2025-08-29 17:26:12.274
40.0, 557.463877545204, 1350.2198209026828, -155.62097705621272, 24.11861481424421, 0.0, 0.04800000227987766, 0.8640000410377979, 0.0, 0.0, 0.0, 0.0, 0.0, 1.7564991722885492E9, 0.0, 2025-08-29 17:26:12.288
40.0, 313.6448398339562, 1277.1720949681476, -235.28084611240774, -119.3925661854446, 0.0, 0.04800000227987766, 0.8640000410377979, 0.0, 0.0, 0.0, 0.0, 0.0, 1.7564991722885492E9, 0.0, 2025-08-29 17:26:12.288
41.0, 332.4471868611872, 1053.2343654213473, -107.01723723206669, 37.34290105756372, 0.0, 0.04800000227987766, 0.8640000410377979, 0.0, 0.0, 0.0, 0.0, 0.0, 1.756499172304214E9, 0.0, 2025-08-29 17:26:12.304
41.0, 204.15926863113418, 1088.6811372013763, -83.05569821596146, 98.10131573770195, 0.0, 0.04800000227987766, 0.8640000410377979, 0.0, 0.0, 0.0, 0.0, 0.0, 1.756499172304214E9, 0.0, 2025-08-29 17:26:12.304
42.0, 153.893143276684, 987.0699253552593, -229.7794532775879, -97.5291110444814, 0.0, 0.04800000227987766, 0.8640000410377979, 0.0, 0.0, 0.0, 0.0, 0.0, 1.7564991723049304E9, 0.0, 2025-08-29 17:26:12.304
42.0, 10.112689480185509, 1202.041244758293, -158.50070002209395, -28.804709458723664, 0.0, 0.04800000227987766, 0.8640000410377979, 0.0, 0.0, 0.0, 0.0, 0.0, 1.7564991723049304E9, 0.0, 2025-08-29 17:26:12.304
43.0, -214.60854910733178, 1297.0047844331712, -59.05302030034363, 122.74725644569844, 0.0, 0.04800000227987766, 0.8640000410377979, 0.0, 0.0, 0.0, 0.0, 0.0, 1.7564991723185363E9, 0.0, 2025-08-29 17:26:12.318
43.0, -263.52083067782223, 1500.2683470249176, -192.56744871847332, -41.82330120448023, 0.0, 0.04800000227987766, 0.8640000410377979, 0.0, 0.0, 0.0, 0.0, 0.0, 1.7564991723185363E9, 0.0, 2025-08-29 17:26:12.318
44.0, -100.7323353565298, 1481.026561752893, -197.36574036162347, -82.76024611946195, 0.0, 0.04800000227987766, 0.8640000410377979, 0.0, 0.0, 0.0, 0.0, 0.0, 1.7564991723342164E9, 0.0, 2025-08-29 17:26:12.334
44.0, -72.45682174153626, 1570.4232603437267, -64.15050393994898, 106.62080783676356, 0.0, 0.04800000227987766, 0.8640000410377979, 0.0, 0.0, 0.0, 0.0, 0.0, 1.7564991723342164E9, 0.0, 2025-08-29 17:26:12.334
45.0, 89.70524033717811, 1366.6604211078957, -133.80988051462919, 42.489003396593034, 0.0, 0.04800000227987766, 0.8640000410377979, 0.0, 0.0, 0.0, 0.0, 0.0, 1.7564991723349571E9, 0.0, 2025-08-29 17:26:12.334
45.0, 316.59562089899555, 1276.057604781352, -220.19034979119897, -109.11906100716442, 0.0, 0.04800000227987766, 0.8640000410377979, 0.0, 0.0, 0.0, 0.0, 0.0, 1.7564991723349571E9, 0.0, 2025-08-29 17:26:12.334
46.0, 325.9360210383311, 1047.8152503855526, -100.99225840345025, 42.481523596681654, 0.0, 0.04800000227987766, 0.8640000410377979, 0.0, 0.0, 0.0, 0.0, 0.0, 1.75649917234854E9, 0.0, 2025-08-29 17:26:12.348
46.0, 216.64679458318278, 1091.5122414678335, -80.80053854268044, 93.2319659953937, 0.0, 0.04800000227987766, 0.8640000410377979, 0.0, 0.0, 0.0, 0.0, 0.0, 1.75649917234854E9, 0.0, 2025-08-29 17:26:12.348
47.0, 136.67464388068765, 980.4802216333337, -211.4315040949732, -95.6367216669023, 0.0, 0.04800000227987766, 0.8640000410377979, 0.0, 0.0, 0.0, 0.0, 0.0, 1.7564991723642163E9, 0.0, 2025-08-29 17:26:12.364
47.0, -1.5221392819657922, 1198.2714256029576, -140.00315484125167, -24.89277410507202, 0.0, 0.04800000227987766, 0.8640000410377979, 0.0, 0.0, 0.0, 0.0, 0.0, 1.7564991723642163E9, 0.0, 2025-08-29 17:26:12.364
48.0, -207.54761799098924, 1299.719951801002, -54.04155435971916, 120.53323567193002, 0.0, 0.04800000227987766, 0.8640000410377979, 0.0, 0.0, 0.0, 0.0, 0.0, 1.7564991723649461E9, 0.0, 2025-08-29 17:26:12.364
48.0, -257.5332508487627, 1504.9245224697515, -182.63053453620523, -42.503962996415794, 0.0, 0.04800000227987766, 0.8640000410377979, 0.0, 0.0, 0.0, 0.0, 0.0, 1.7564991723649461E9, 0.0, 2025-08-29 17:26:12.364
49.0, -116.05470547499135, 1478.1580584868789, -190.04301624838263, -79.67856855597347, 0.0, 0.04800000227987766, 0.8640000410377979, 0.0, 0.0, 0.0, 0.0, 0.0, 1.756499172378652E9, 0.0, 2025-08-29 17:26:12.378
49.0, -55.90776443760842, 1577.1588201639242, -54.090173059143126, 114.47085784375668, 0.0, 0.04800000227987766, 0.8640000410377979, 0.0, 0.0, 0.0, 0.0, 0.0, 1.756499172378652E9, 0.0, 2025-08-29 17:26:12.378
50.0, 91.40315491706133, 1379.6154345544055, -134.2811079090461, 30.708318536169827, 0.0, 0.04800000227987766, 0.9280000440776348, 0.0, 0.0, 0.0, 0.0, 0.0, 1.7564991723941915E9, 0.0, 2025-08-29 17:26:12.394
50.0, 304.2389914453961, 1270.9414216419682, -218.6569908093661, -108.9058867096901, 0.0, 0.04800000227987766, 0.9280000440776348, 0.0, 0.0, 0.0, 0.0, 0.0, 1.7564991723941915E9, 0.0, 2025-08-29 17:26:12.394
51.0, 334.66120763495564, 1056.1888863863423, -96.05933036189526, 53.708703263662755, 0.0, 0.04800000227987766, 0.9280000440776348, 0.0, 0.0, 0.0, 0.0, 0.0, 1.7564991723949363E9, 0.0, 2025-08-29 17:26:12.394
51.0, 225.96288537280634, 1103.3527647275478, -85.06402449216694, 90.90200832299888, 0.0, 0.04800000227987766, 0.9280000440776348, 0.0, 0.0, 0.0, 0.0, 0.0, 1.7564991723949363E9, 0.0, 2025-08-29 17:26:12.394
52.0, 143.29800670221448, 986.6660161600448, -213.3612924721092, -88.86750274710357, 0.0, 0.04800000227987766, 0.9280000440776348, 0.0, 0.0, 0.0, 0.0, 0.0, 1.756499172408544E9, 0.0, 2025-08-29 17:26:12.408
52.0, 1.4772604824975133, 1196.0611447291449, -141.181223327294, -8.003385905176401, 0.0, 0.04800000227987766, 0.9280000440776348, 0.0, 0.0, 0.0, 0.0, 0.0, 1.756499172408544E9, 0.0, 2025-08-29 17:26:12.408
53.0, -186.86597123602405, 1310.1954115768895, -48.62991912383586, 138.1406846633181, 0.0, 0.04800000227987766, 0.9280000440776348, 0.0, 0.0, 0.0, 0.0, 0.0, 1.756499172424189E9, 0.0, 2025-08-29 17:26:12.424
53.0, -249.21571334730834, 1515.6729949424043, -173.18354724813253, -19.122108473442495, 0.0, 0.04800000227987766, 0.9280000440776348, 0.0, 0.0, 0.0, 0.0, 0.0, 1.756499172424189E9, 0.0, 2025-08-29 17:26:12.424
54.0, -112.00439382297918, 1469.1785586932674, -188.39372036792338, -61.397937572561204, 0.0, 0.04800000227987766, 0.9280000440776348, 0.0, 0.0, 0.0, 0.0, 0.0, 1.7564991724249363E9, 0.0, 2025-08-29 17:26:12.424
54.0, -55.17848394624889, 1577.1588201639242, -68.05869939364493, 114.37736034486443, 0.0, 0.04800000227987766, 0.9280000440776348, 0.0, 0.0, 0.0, 0.0, 0.0, 1.7564991724249363E9, 0.0, 2025-08-29 17:26:12.424
55.0, 101.75893789436668, 1383.841521504335, -140.25746803823858, 41.81582140456885, 0.0, 0.04800000227987766, 0.9280000440776348, 0.0, 0.0, 0.0, 0.0, 0.0, 1.7564991724385445E9, 0.0, 2025-08-29 17:26:12.438
55.0, 297.7801842219196, 1265.17823581025, -221.12906468007714, -97.68244694266468, 0.0, 0.04800000227987766, 0.9280000440776348, 0.0, 0.0, 0.0, 0.0, 0.0, 1.7564991724385445E9, 0.0, 2025-08-29 17:26:12.438
56.0, 327.7162134172395, 1043.312410838902, -105.62225454859436, 52.152904882095754, 0.0, 0.04800000227987766, 0.9280000440776348, 0.0, 0.0, 0.0, 0.0, 0.0, 1.7564991724542024E9, 0.0, 2025-08-29 17:26:12.454
56.0, 235.96711775427684, 1111.9433149257675, -97.95545963943005, 99.31304332334548, 0.0, 0.04800000227987766, 0.9280000440776348, 0.0, 0.0, 0.0, 0.0, 0.0, 1.7564991724542024E9, 0.0, 2025-08-29 17:26:12.454
57.0, 137.38522487226874, 980.7831535297446, -226.0358134219423, -85.1874411907047, 0.0, 0.04800000227987766, 0.9280000440776348, 0.0, 0.0, 0.0, 0.0, 0.0, 1.7564991724549158E9, 0.0, 2025-08-29 17:26:12.454
57.0, -14.428534029051661, 1181.2922798041254, -154.38307017087936, -11.750765660777688, 0.0, 0.04800000227987766, 0.9280000440776348, 0.0, 0.0, 0.0, 0.0, 0.0, 1.7564991724549158E9, 0.0, 2025-08-29 17:26:12.454
58.0, -186.26758724311367, 1307.5887013077736, -67.56503259949386, 128.30474777985364, 0.0, 0.04800000227987766, 0.9280000440776348, 0.0, 0.0, 0.0, 0.0, 0.0, 1.7564991724685175E9, 0.0, 2025-08-29 17:26:12.468
58.0, -243.20195421855897, 1512.2659460827708, -184.69121941179037, -29.37317425198853, 0.0, 0.04800000227987766, 0.9280000440776348, 0.0, 0.0, 0.0, 0.0, 0.0, 1.7564991724685175E9, 0.0, 2025-08-29 17:26:12.468
59.0, -132.96279317466542, 1455.2249919585884, -196.47938407212496, -72.95422843564302, 0.0, 0.04800000227987766, 0.9280000440776348, 0.0, 0.0, 0.0, 0.0, 0.0, 1.7564991724842684E9, 0.0, 2025-08-29 17:26:12.484
59.0, -48.136252329684794, 1575.8423753795214, -69.13579058088362, 114.45589824393392, 0.0, 0.04800000227987766, 0.9280000440776348, 0.0, 0.0, 0.0, 0.0, 0.0, 1.7564991724842684E9, 0.0, 2025-08-29 17:26:12.484
60.0, 109.2387378057465, 1385.2402440877631, -142.7332818089053, 38.59950744267553, 0.0, 0.04800000227987766, 0.944000044837594, 0.0, 0.0, 0.0, 0.0, 0.0, 1.7564991724849932E9, 0.0, 2025-08-29 17:26:12.484
60.0, 292.43960708519444, 1263.973988024518, -217.26948792580515, -90.87956892326474, 0.0, 0.04800000227987766, 0.944000044837594, 0.0, 0.0, 0.0, 0.0, 0.0, 1.7564991724849932E9, 0.0, 2025-08-29 17:26:12.484
61.0, 327.1888875234872, 1049.1840537693352, -103.20627917721868, 66.82827230822295, 0.0, 0.04800000227987766, 0.944000044837594, 0.0, 0.0, 0.0, 0.0, 0.0, 1.7564991724985821E9, 0.0, 2025-08-29 17:26:12.498
61.0, 250.97907617641613, 1116.5620913710445, -92.01275860983878, 102.24886478856206, 0.0, 0.04800000227987766, 0.944000044837594, 0.0, 0.0, 0.0, 0.0, 0.0, 1.7564991724985821E9, 0.0, 2025-08-29 17:26:12.498
62.0, 130.7319428510964, 977.9370896634646, -225.45612892881036, -91.1937205195427, 0.0, 0.04800000227987766, 0.944000044837594, 0.0, 0.0, 0.0, 0.0, 0.0, 1.7564991725142603E9, 0.0, 2025-08-29 17:26:12.514
62.0, -25.648233896121383, 1180.5517796128988, -151.56692550424486, -5.422854935750365, 0.0, 0.04800000227987766, 0.944000044837594, 0.0, 0.0, 0.0, 0.0, 0.0, 1.7564991725142603E9, 0.0, 2025-08-29 17:26:12.514
63.0, -175.59765266953036, 1315.2106174174696, -81.06981133949012, 126.2066639047116, 0.0, 0.04800000227987766, 0.944000044837594, 0.0, 0.0, 0.0, 0.0, 0.0, 1.7564991725149734E9, 0.0, 2025-08-29 17:26:12.514
63.0, -248.06008426100016, 1511.757319688797, -198.6148669468239, -33.950811797752976, 0.0, 0.04800000227987766, 0.944000044837594, 0.0, 0.0, 0.0, 0.0, 0.0, 1.7564991725149734E9, 0.0, 2025-08-29 17:26:12.514
64.0, -145.22218522941694, 1448.9681393327191, -206.51727555319667, -69.63319727499038, 0.0, 0.04800000227987766, 0.944000044837594, 0.0, 0.0, 0.0, 0.0, 0.0, 1.7564991725285385E9, 0.0, 2025-08-29 17:26:12.528
64.0, -47.702423934824765, 1578.9726716424339, -82.82008451875299, 107.73155812360346, 0.0, 0.04800000227987766, 0.944000044837594, 0.0, 0.0, 0.0, 0.0, 0.0, 1.7564991725285385E9, 0.0, 2025-08-29 17:26:12.528
65.0, 112.60090786591172, 1390.4536646259949, -151.5931048039347, 30.16603304259479, 0.0, 0.04800000227987766, 0.944000044837594, 0.0, 0.0, 0.0, 0.0, 0.0, 1.7564991725442357E9, 0.0, 2025-08-29 17:26:12.544
65.0, 276.8554439698346, 1244.4442304559052, -233.4108961345628, -101.48592519760132, 0.0, 0.04800000227987766, 0.944000044837594, 0.0, 0.0, 0.0, 0.0, 0.0, 1.7564991725442357E9, 0.0, 2025-08-29 17:26:12.544
66.0, 321.4444011915475, 1039.778205380775, -111.95016527362168, 57.4710426190868, 0.0, 0.04800000227987766, 0.944000044837594, 0.0, 0.0, 0.0, 0.0, 0.0, 1.756499172544979E9, 0.0, 2025-08-29 17:26:12.544
66.0, 260.3288260656409, 1128.0772433346137, -97.88440154027194, 105.37168125156313, 0.0, 0.04800000227987766, 0.944000044837594, 0.0, 0.0, 0.0, 0.0, 0.0, 1.756499172544979E9, 0.0, 2025-08-29 17:26:12.544
67.0, 128.48426297772676, 980.0725725381635, -219.0309808049351, -84.25620610173792, 0.0, 0.04800000227987766, 0.944000044837594, 0.0, 0.0, 0.0, 0.0, 0.0, 1.7564991725585437E9, 0.0, 2025-08-29 17:26:12.558
67.0, -31.153366630896926, 1166.8712255749851, -156.05854535102844, -1.6679953802376986, 0.0, 0.04800000227987766, 0.944000044837594, 0.0, 0.0, 0.0, 0.0, 0.0, 1.7564991725585437E9, 0.0, 2025-08-29 17:26:12.558
68.0, -167.8411001614295, 1324.5379279069602, -80.97257394064218, 126.71903019864112, 0.0, 0.04800000227987766, 0.944000044837594, 0.0, 0.0, 0.0, 0.0, 0.0, 1.7564991725743353E9, 0.0, 2025-08-29 17:26:12.574
68.0, -245.27011889405549, 1519.0950034018606, -199.16089234035462, -33.46836470346898, 0.0, 0.04800000227987766, 0.944000044837594, 0.0, 0.0, 0.0, 0.0, 0.0, 1.7564991725743353E9, 0.0, 2025-08-29 17:26:12.574
69.0, -165.77667538588867, 1439.9213213399053, -205.73563646245748, -72.16136964503676, 0.0, 0.04800000227987766, 0.944000044837594, 0.0, 0.0, 0.0, 0.0, 0.0, 1.756499172575014E9, 0.0, 2025-08-29 17:26:12.575
69.0, -49.654651711694896, 1579.9936643303372, -91.63128881435841, 108.99564430862665, 0.0, 0.04800000227987766, 0.944000044837594, 0.0, 0.0, 0.0, 0.0, 0.0, 1.756499172575014E9, 0.0, 2025-08-29 17:26:12.575
70.0, 129.5463945651427, 1403.8986049667, -151.86611750070006, 37.245663658715785, 0.0, 0.04800000227987766, 0.9600000455975533, 0.0, 0.0, 0.0, 0.0, 0.0, 1.756499172588521E9, 0.0, 2025-08-29 17:26:12.588
70.0, 270.24330084817484, 1250.211156187579, -221.98176186997443, -89.6005231384188, 0.0, 0.04800000227987766, 0.9600000455975533, 0.0, 0.0, 0.0, 0.0, 0.0, 1.756499172588521E9, 0.0, 2025-08-29 17:26:12.588
71.0, 318.80403182283044, 1039.1349425883964, -110.64868008904159, 55.97508263681084, 0.0, 0.04800000227987766, 0.9600000455975533, 0.0, 0.0, 0.0, 0.0, 0.0, 1.7564991726042721E9, 0.0, 2025-08-29 17:26:12.604
71.0, 269.1811692607589, 1133.791810466908, -102.18528648931533, 100.36021531093866, 0.0, 0.04800000227987766, 0.9600000455975533, 0.0, 0.0, 0.0, 0.0, 0.0, 1.7564991726042721E9, 0.0, 2025-08-29 17:26:12.604
72.0, 118.34165429789573, 975.4537960928865, -223.8068330483511, -81.25306643731892, 0.0, 0.04800000227987766, 0.9600000455975533, 0.0, 0.0, 0.0, 0.0, 0.0, 1.756499172605018E9, 0.0, 2025-08-29 17:26:12.605
72.0, -54.497822154313326, 1161.1379589429125, -163.61688316147774, -13.605756038799882, 0.0, 0.04800000227987766, 0.9600000455975533, 0.0, 0.0, 0.0, 0.0, 0.0, 1.756499172605018E9, 0.0, 2025-08-29 17:26:12.605
73.0, -164.70332409860566, 1327.8290398679674, -83.97197370510548, 122.67619834654033, 0.0, 0.04800000227987766, 0.9600000455975533, 0.0, 0.0, 0.0, 0.0, 0.0, 1.7564991726185443E9, 0.0, 2025-08-29 17:26:12.618
73.0, -239.05814506765455, 1524.4131411388516, -197.58639445900917, -36.63979986589402, 0.0, 0.04800000227987766, 0.9600000455975533, 0.0, 0.0, 0.0, 0.0, 0.0, 1.7564991726185443E9, 0.0, 2025-08-29 17:26:12.618
74.0, -184.05356646934524, 1426.9663078933954, -213.2079565739259, -72.37454394251108, 0.0, 0.04800000227987766, 0.9600000455975533, 0.0, 0.0, 0.0, 0.0, 0.0, 1.7564991726342185E9, 0.0, 2025-08-29 17:26:12.634
74.0, -40.95564441476017, 1586.5609286525287, -79.93288175296038, 116.8344746157527, 0.0, 0.04800000227987766, 0.9600000455975533, 0.0, 0.0, 0.0, 0.0, 0.0, 1.7564991726342185E9, 0.0, 2025-08-29 17:26:12.634
75.0, 138.4361367598176, 1409.747808497399, -144.19184279162437, 43.659592082723975, 0.0, 0.04800000227987766, 0.9600000455975533, 0.0, 0.0, 0.0, 0.0, 0.0, 1.756499172635187E9, 0.0, 2025-08-29 17:26:12.635
75.0, 262.20251594344154, 1240.7267698999494, -227.2550208074972, -93.51245849207044, 0.0, 0.04800000227987766, 0.9600000455975533, 0.0, 0.0, 0.0, 0.0, 0.0, 1.756499172635187E9, 0.0, 2025-08-29 17:26:12.635
76.0, 311.38407031074166, 1041.0497713657096, -113.59572125412524, 66.07281251717359, 0.0, 0.04800000227987766, 0.9600000455975533, 0.0, 0.0, 0.0, 0.0, 0.0, 1.7564991726484883E9, 0.0, 2025-08-29 17:26:12.648
76.0, 294.5975293596275, 1154.0732879266143, -95.53948426805437, 98.13123493734747, 0.0, 0.04800000227987766, 0.9600000455975533, 0.0, 0.0, 0.0, 0.0, 0.0, 1.7564991726484883E9, 0.0, 2025-08-29 17:26:12.648
77.0, 118.82784129213542, 971.998128533829, -221.26370107848197, -81.06981133949012, 0.0, 0.04800000227987766, 0.9600000455975533, 0.0, 0.0, 0.0, 0.0, 0.0, 1.7564991726642375E9, 0.0, 2025-08-29 17:26:12.664
77.0, -44.39635237399489, 1157.5813140850514, -146.86587125994265, -1.7614928791299462, 0.0, 0.04800000227987766, 0.9600000455975533, 0.0, 0.0, 0.0, 0.0, 0.0, 1.7564991726642375E9, 0.0, 2025-08-29 17:26:12.664
78.0, -140.99609827948734, 1334.998428083025, -80.09369745105505, 120.58559427130967, 0.0, 0.04800000227987766, 0.9600000455975533, 0.0, 0.0, 0.0, 0.0, 0.0, 1.7564991726649847E9, 0.0, 2025-08-29 17:26:12.664
78.0, -235.3668638113886, 1519.801844493486, -190.2337511461228, -37.76176985260099, 0.0, 0.04800000227987766, 0.9600000455975533, 0.0, 0.0, 0.0, 0.0, 0.0, 1.7564991726649847E9, 0.0, 2025-08-29 17:26:12.664
79.0, -190.08602509787306, 1418.974141688086, -194.9048861907795, -59.25871479790658, 0.0, 0.04800000227987766, 0.9600000455975533, 0.0, 0.0, 0.0, 0.0, 0.0, 1.7564991726785173E9, 0.0, 2025-08-29 17:26:12.678
79.0, -29.32455555256456, 1583.217458092142, -81.64949583262205, 114.83736803941429, 0.0, 0.04800000227987766, 0.9600000455975533, 0.0, 0.0, 0.0, 0.0, 0.0, 1.7564991726785173E9, 0.0, 2025-08-29 17:26:12.678
80.0, 141.15504402760416, 1405.888231743127, -152.83101168926805, 35.83946127537638, 0.0, 0.04800000227987766, 0.9760000463575125, 0.0, 0.0, 0.0, 0.0, 0.0, 1.7564991726942613E9, 0.0, 2025-08-29 17:26:12.694
80.0, 247.62438591616228, 1232.809401693754, -228.0329199982807, -92.07633690908551, 0.0, 0.04800000227987766, 0.9760000463575125, 0.0, 0.0, 0.0, 0.0, 0.0, 1.7564991726942613E9, 0.0, 2025-08-29 17:26:12.694
81.0, 313.4073561867699, 1036.303838321939, -109.16019990667701, 68.56358588766307, 0.0, 0.04800000227987766, 0.9760000463575125, 0.0, 0.0, 0.0, 0.0, 0.0, 1.7564991726949725E9, 0.0, 2025-08-29 17:26:12.694
81.0, 296.0560903423466, 1154.365000123158, -106.0149440439418, 94.68304717820138, 0.0, 0.04800000227987766, 0.9760000463575125, 0.0, 0.0, 0.0, 0.0, 0.0, 1.7564991726949725E9, 0.0, 2025-08-29 17:26:12.694
82.0, 108.30376281682402, 971.0893328445964, -227.58413200359792, -88.84506334736943, 0.0, 0.04800000227987766, 0.9760000463575125, 0.0, 0.0, 0.0, 0.0, 0.0, 1.7564991727085664E9, 0.0, 2025-08-29 17:26:12.708
82.0, -58.607972205616534, 1151.3132417593151, -153.08158498629928, 1.6268564807251096, 0.0, 0.04800000227987766, 0.9760000463575125, 0.0, 0.0, 0.0, 0.0, 0.0, 1.7564991727085664E9, 0.0, 2025-08-29 17:26:12.708
83.0, -133.05629067355767, 1349.505500011146, -81.17452853824943, 127.70636378694326, 0.0, 0.04800000227987766, 0.9760000463575125, 0.0, 0.0, 0.0, 0.0, 0.0, 1.7564991727242267E9, 0.0, 2025-08-29 17:26:12.724
83.0, -234.72734091896564, 1531.5152111547068, -196.06425517704338, -40.5367756197229, 0.0, 0.04800000227987766, 0.9760000463575125, 0.0, 0.0, 0.0, 0.0, 0.0, 1.7564991727242267E9, 0.0, 2025-08-29 17:26:12.724
84.0, -196.71686771931127, 1417.6950959032401, -199.68073843419552, -66.46176211256534, 0.0, 0.04800000227987766, 0.9760000463575125, 0.0, 0.0, 0.0, 0.0, 0.0, 1.7564991727249851E9, 0.0, 2025-08-29 17:26:12.724
84.0, -16.788410901091993, 1596.0266154403798, -72.146410045214, 121.54300865996629, 0.0, 0.04800000227987766, 0.9760000463575125, 0.0, 0.0, 0.0, 0.0, 0.0, 1.7564991727249851E9, 0.0, 2025-08-29 17:26:12.724
85.0, 152.20270849671215, 1422.0072005521506, -156.27171964850277, 28.662593260407448, 0.0, 0.04800000227987766, 0.9760000463575125, 0.0, 0.0, 0.0, 0.0, 0.0, 1.7564991727385378E9, 0.0, 2025-08-29 17:26:12.738
85.0, 231.73355100443587, 1227.9400519514456, -259.1227083299309, -130.20087705738842, 0.0, 0.04800000227987766, 0.9760000463575125, 0.0, 0.0, 0.0, 0.0, 0.0, 1.7564991727385378E9, 0.0, 2025-08-29 17:26:12.738
86.0, 299.8539587473497, 1028.5809449134395, -118.79418219253421, 41.677445106208324, 0.0, 0.04800000227987766, 0.9760000463575125, 0.0, 0.0, 0.0, 0.0, 0.0, 1.7564991727706716E9, 0.0, 2025-08-29 17:26:12.770
86.0, 309.94794872775674, 1159.8701328579336, -82.38999602384865, 121.78610215708613, 0.0, 0.04800000227987766, 0.9760000463575125, 0.0, 0.0, 0.0, 0.0, 0.0, 1.7564991727706716E9, 0.0, 2025-08-29 17:26:12.770
87.0, 105.07435920508578, 966.3994983001612, -221.28240057826042, -75.79281250201166, 0.0, 0.04800000227987766, 0.9760000463575125, 0.0, 0.0, 0.0, 0.0, 0.0, 1.7564991727713954E9, 0.0, 2025-08-29 17:26:12.771
87.0, -66.65436696028337, 1141.6493402738124, -154.97023446392268, 1.4735205825418234, 0.0, 0.04800000227987766, 0.9760000463575125, 0.0, 0.0, 0.0, 0.0, 0.0, 1.7564991727713954E9, 0.0, 2025-08-29 17:26:12.771
88.0, -122.19001135230064, 1355.46316064056, -66.04289331752807, 131.68561733979732, 0.0, 0.04800000227987766, 0.9760000463575125, 0.0, 0.0, 0.0, 0.0, 0.0, 1.7564991727721844E9, 0.0, 2025-08-29 17:26:12.772
88.0, -238.6897649220191, 1521.8064308697358, -211.08743329904974, -47.94551743194461, 0.0, 0.04800000227987766, 0.9760000463575125, 0.0, 0.0, 0.0, 0.0, 0.0, 1.7564991727721844E9, 0.0, 2025-08-29 17:26:12.772
89.0, -218.57097311038524, 1395.3641532678157, -212.9910423764959, -73.63115032762289, 0.0, 0.04800000227987766, 0.9760000463575125, 0.0, 0.0, 0.0, 0.0, 0.0, 1.7564991727728493E9, 0.0, 2025-08-29 17:26:12.772
89.0, -21.48011539550498, 1595.7498628436588, -98.46034613344818, 97.46179284527898, 0.0, 0.04800000227987766, 0.9760000463575125, 0.0, 0.0, 0.0, 0.0, 0.0, 1.7564991727728493E9, 0.0, 2025-08-29 17:26:12.772
90.0, 144.33956883987412, 1416.4721486177295, -174.87024212814867, 7.154428615234792, 0.0, 0.04800000227987766, 0.9760000463575125, 0.0, 0.0, 0.0, 0.0, 0.0, 1.756499172783573E9, 0.0, 2025-08-29 17:26:12.783
90.0, 215.2125429501757, 1210.6953732557595, -249.159614847973, -113.90987285040319, 0.0, 0.04800000227987766, 0.9760000463575125, 0.0, 0.0, 0.0, 0.0, 0.0, 1.756499172783573E9, 0.0, 2025-08-29 17:26:12.783
91.0, 307.5675024059601, 1029.4037229036912, -113.96971124969423, 56.35655243229121, 0.0, 0.06400000303983688, 0.9760000463575125, 0.0, 0.0, 0.0, 0.0, 0.0, 1.7564991727985487E9, 0.0, 2025-08-29 17:26:12.798
91.0, 314.36664052540436, 1165.6220989897847, -122.12643305305392, 81.38396293576807, 0.0, 0.06400000303983688, 0.9760000463575125, 0.0, 0.0, 0.0, 0.0, 0.0, 1.7564991727985487E9, 0.0, 2025-08-29 17:26:12.798
92.0, 88.24293945450336, 949.9775975947268, -245.300038093701, -104.384347663261, 0.0, 0.06400000303983688, 0.9760000463575125, 0.0, 0.0, 0.0, 0.0, 0.0, 1.7564991728142197E9, 0.0, 2025-08-29 17:26:12.814
92.0, -81.56347813364118, 1135.3812679480761, -166.53400512691587, -14.858622523956, 0.0, 0.06400000303983688, 0.9760000463575125, 0.0, 0.0, 0.0, 0.0, 0.0, 1.7564991728142197E9, 0.0, 2025-08-29 17:26:12.814
93.0, -114.12491709785536, 1353.208000967279, -90.95062702242285, 103.96921876817942, 0.0, 0.06400000303983688, 0.9760000463575125, 0.0, 0.0, 0.0, 0.0, 0.0, 1.756499172814947E9, 0.0, 2025-08-29 17:26:12.814
93.0, -252.13283531274647, 1511.0654381969944, -226.20410891994834, -73.9266024241224, 0.0, 0.06400000303983688, 0.9760000463575125, 0.0, 0.0, 0.0, 0.0, 0.0, 1.756499172814947E9, 0.0, 2025-08-29 17:26:12.814
94.0, -233.19585188711062, 1387.4093860620633, -222.1837164675817, -88.29529805388302, 0.0, 0.06400000303983688, 0.9760000463575125, 0.0, 0.0, 0.0, 0.0, 0.0, 1.7564991728285432E9, 0.0, 2025-08-29 17:26:12.828
94.0, -19.604555567726493, 1596.9316712296568, -108.0531895197928, 85.87932268250734, 0.0, 0.06400000303983688, 0.9760000463575125, 0.0, 0.0, 0.0, 0.0, 0.0, 1.7564991728285432E9, 0.0, 2025-08-29 17:26:12.828
95.0, 149.0350132342428, 1420.9712482644245, -185.0839089071378, -7.876229306682944, 0.0, 0.06400000303983688, 0.9760000463575125, 0.0, 0.0, 0.0, 0.0, 0.0, 1.7564991728442168E9, 0.0, 2025-08-29 17:26:12.844
95.0, 204.49585962714627, 1201.1399288689718, -253.9317271914333, -123.85052693262696, 0.0, 0.06400000303983688, 0.9760000463575125, 0.0, 0.0, 0.0, 0.0, 0.0, 1.7564991728442168E9, 0.0, 2025-08-29 17:26:12.844
96.0, 316.02154625579715, 1038.3009448982775, -126.05332800652832, 48.60747972410172, 0.0, 0.06400000303983688, 0.9760000463575125, 0.0, 0.0, 0.0, 0.0, 0.0, 1.7564991728449323E9, 0.0, 2025-08-29 17:26:12.844
96.0, 324.9038086505607, 1179.8299789214507, -130.71324335131794, 66.14761051628739, 0.0, 0.06400000303983688, 0.9760000463575125, 0.0, 0.0, 0.0, 0.0, 0.0, 1.7564991728449323E9, 0.0, 2025-08-29 17:26:12.844
97.0, 560.9288948541507, 947.105354428757, -260.83932240959257, -115.23379743471742, 0.0, 0.06400000303983688, 0.9760000463575125, 0.0, 0.0, 0.0, 0.0, 0.0, 1.7564991728585484E9, 0.0, 2025-08-29 17:26:12.858
97.0, 406.62436258234084, 1132.6287015806884, -178.77469768188894, -26.018483991734684, 0.0, 0.06400000303983688, 0.9760000463575125, 0.0, 0.0, 0.0, 0.0, 0.0, 1.7564991728585484E9, 0.0, 2025-08-29 17:26:12.858
98.0, 382.11118832277134, 1363.9115946404636, -103.25115797668695, 104.7545977588743, 0.0, 0.06400000303983688, 0.9760000463575125, 0.0, 0.0, 0.0, 0.0, 0.0, 1.7564991728741908E9, 0.0, 2025-08-29 17:26:12.874
98.0, 239.0394455678761, 1514.5697244554758, -233.35479763522744, -75.59459780436009, 0.0, 0.06400000303983688, 0.9760000463575125, 0.0, 0.0, 0.0, 0.0, 0.0, 1.7564991728741908E9, 0.0, 2025-08-29 17:26:12.874
99.0, 247.2466560206376, 1385.120567289181, -232.4422620460391, -90.77111182454973, 0.0, 0.06400000303983688, 0.9760000463575125, 0.0, 0.0, 0.0, 0.0, 0.0, 1.7564991728749352E9, 0.0, 2025-08-29 17:26:12.874
99.0, 484.2235467629507, 1604.5610671392642, -106.26177744101733, 92.67098100204021, 0.0, 0.06400000303983688, 0.9760000463575125, 0.0, 0.0, 0.0, 0.0, 0.0, 1.7564991728749352E9, 0.0, 2025-08-29 17:26:12.874
100.0, 635.6146969692782, 1420.989947764203, -186.35921479202807, -4.8169911429286, 0.0, 0.06400000303983688, 0.9760000463575125, 0.0, 0.0, 0.0, 0.0, 0.0, 1.7564991729055796E9, 0.0, 2025-08-29 17:26:12.905
100.0, 685.7873248248361, 1192.8410908672959, -257.5669099483639, -124.68078472279012, 0.0, 0.06400000303983688, 0.9760000463575125, 0.0, 0.0, 0.0, 0.0, 0.0, 1.7564991729055796E9, 0.0, 2025-08-29 17:26:12.905
0.0, -671.7402605912648, -435.49265034031123, -133.3199536204338, 49.617252712138, 0.0, 0.06400000303983688, 0.9760000463575125, 0.0, 0.0, 0.0, 0.0, 0.0, 1.756499172906328E9, 0.0, 2025-08-29 17:26:12.906
1.0, -648.9081713617779, -292.0974062392488, -138.89988435432315, 59.59904569387436, 0.0, 0.06400000303983688, 0.9760000463575125, 0.0, 0.0, 0.0, 0.0, 0.0, 1.7564991729070733E9, 0.0, 2025-08-29 17:26:12.907
1.0, -416.60428561409935, -525.551311223302, -263.7078256756067, -120.89226606767625, 0.0, 0.06400000303983688, 0.9760000463575125, 0.0, 0.0, 0.0, 0.0, 0.0, 1.7564991729070733E9, 0.0, 2025-08-29 17:26:12.907
2.0, -565.616859448608, -333.8159902449697, -177.44329329766333, -24.391627511009574, 0.0, 0.06400000303983688, 0.9760000463575125, 0.0, 0.0, 0.0, 0.0, 0.0, 1.7564991729078398E9, 0.0, 2025-08-29 17:26:12.907
2.0, -581.0345970159397, -95.75639846548438, -103.35587517544627, 103.76352427061647, 0.0, 0.06400000303983688, 0.9760000463575125, 0.0, 0.0, 0.0, 0.0, 0.0, 1.7564991729078398E9, 0.0, 2025-08-29 17:26:12.907
3.0, -736.238575227093, 47.309734439477324, -231.6643628552556, -75.19442850910127, 0.0, 0.06400000303983688, 0.9760000463575125, 0.0, 0.0, 0.0, 0.0, 0.0, 1.7564991729185524E9, 0.0, 2025-08-29 17:26:12.918
3.0, -725.226439807564, -85.93916108179837, -229.88043057639152, -96.42210065759718, 0.0, 0.06400000303983688, 0.9760000463575125, 0.0, 0.0, 0.0, 0.0, 0.0, 1.7564991729185524E9, 0.0, 2025-08-29 17:26:12.918
4.0, -963.5665240837261, 152.2382375462912, -98.43042693380266, 90.64769512601197, 0.0, 0.06400000303983688, 0.9760000463575125, 0.0, 0.0, 0.0, 0.0, 0.0, 1.756499172933564E9, 0.0, 2025-08-29 17:26:12.933
4.0, -814.9728190442547, -38.068441648967564, -185.37188120372593, -14.753905325196683, 0.0, 0.06400000303983688, 0.9760000463575125, 0.0, 0.0, 0.0, 0.0, 0.0, 1.756499172933564E9, 0.0, 2025-08-29 17:26:12.933
5.0, -793.4366051494144, -272.62748706992716, -259.73231202270836, -137.14961117506027, 0.0, 0.06400000303983688, 0.9760000463575125, 0.0, 0.0, 0.0, 0.0, 0.0, 1.756499172949242E9, 0.0, 2025-08-29 17:26:12.949
5.0, -657.0181444156915, -430.6906187972054, -130.6908039515838, 38.55088874325156, 0.0, 0.06400000303983688, 0.9760000463575125, 0.0, 0.0, 0.0, 0.0, 0.0, 1.756499172949242E9, 0.0, 2025-08-29 17:26:12.949
6.0, -640.4877866115421, -283.495636341162, -142.34059231355786, 49.665871411561966, 0.0, 0.06400000303983688, 0.9760000463575125, 0.0, 0.0, 0.0, 0.0, 0.0, 1.7564991729499865E9, 0.0, 2025-08-29 17:26:12.949
6.0, -432.30251567810774, -46.449557449668646, -267.2682104334235, -142.22839531488717, 0.0, 0.06400000303983688, 0.9760000463575125, 0.0, 0.0, 0.0, 0.0, 0.0, 1.7564991729499865E9, 0.0, 2025-08-29 17:26:12.949
7.0, -572.9751126114279, 145.4951979261823, -182.39118093904108, -38.59202764276415, 0.0, 0.06400000303983688, 0.9760000463575125, 0.0, 0.0, 0.0, 0.0, 0.0, 1.7564991729635649E9, 0.0, 2025-08-29 17:26:12.963
7.0, -575.6323115299456, -98.0115581387654, -106.35901483986527, 94.7466254774481, 0.0, 0.06400000303983688, 0.9760000463575125, 0.0, 0.0, 0.0, 0.0, 0.0, 1.7564991729635649E9, 0.0, 2025-08-29 17:26:12.963
8.0, -741.5249238144606, 46.853466644883156, -232.65169644355774, -89.25271244253963, 0.0, 0.06400000303983688, 0.9760000463575125, 0.0, 0.0, 0.0, 0.0, 0.0, 1.7564991729793253E9, 0.0, 2025-08-29 17:26:12.979
8.0, -748.7840696284547, -95.95461316313595, -227.1091647092253, -98.3070102352649, 0.0, 0.06400000303983688, 0.9760000463575125, 0.0, 0.0, 0.0, 0.0, 0.0, 1.7564991729793253E9, 0.0, 2025-08-29 17:26:12.979
9.0, -971.8990211850032, 143.73744494700804, -95.17671397235245, 89.58556353859603, 0.0, 0.06400000303983688, 0.9760000463575125, 0.0, 0.0, 0.0, 0.0, 0.0, 1.7564991729799654E9, 0.0, 2025-08-29 17:26:12.979
9.0, -824.2627305341884, -45.59686025977135, -185.0539897074923, -10.778391672298312, 0.0, 0.06400000303983688, 0.9760000463575125, 0.0, 0.0, 0.0, 0.0, 0.0, 1.7564991729799654E9, 0.0, 2025-08-29 17:26:12.979
10.0, -808.0521341762505, -288.19295068550855, -260.92534010857344, -133.3199536204338, 0.0, 0.06400000303983688, 0.9760000463575125, 0.0, 0.0, 0.0, 0.0, 0.0, 1.756499172993584E9, 0.0, 2025-08-29 17:26:12.993
10.0, -684.7943813866004, -457.0756129845977, -121.15779896453023, 50.107179606333375, 0.0, 0.06400000303983688, 0.9760000463575125, 0.0, 0.0, 0.0, 0.0, 0.0, 1.756499172993584E9, 0.0, 2025-08-29 17:26:12.993
11.0, -646.5501644397154, -290.7734816549346, -133.57052691746503, 56.33037313260138, 0.0, 0.04800000227987766, 0.9760000463575125, 0.0, 0.0, 0.0, 0.0, 0.0, 1.7564991730092423E9, 0.0, 2025-08-29 17:26:13.009
11.0, -432.0145433815196, -525.068864129018, -253.7484720936045, -127.64278548769653, 0.0, 0.04800000227987766, 0.9760000463575125, 0.0, 0.0, 0.0, 0.0, 0.0, 1.7564991730092423E9, 0.0, 2025-08-29 17:26:13.009
12.0, -606.8586062099785, -363.6603918913752, -168.45631370414048, -24.51878410950303, 0.0, 0.04800000227987766, 0.9760000463575125, 0.0, 0.0, 0.0, 0.0, 0.0, 1.7564991730099661E9, 0.0, 2025-08-29 17:26:13.009
12.0, -591.5399759914726, -599.5975904460065, -86.61982287373394, 111.74447077605873, 0.0, 0.04800000227987766, 0.9760000463575125, 0.0, 0.0, 0.0, 0.0, 0.0, 1.7564991730099661E9, 0.0, 2025-08-29 17:26:13.009
13.0, -730.2883943975903, -429.20026866486296, -225.47108852863312, -68.57480558753014, 0.0, 0.04800000227987766, 0.9760000463575125, 0.0, 0.0, 0.0, 0.0, 0.0, 1.7564991730235896E9, 0.0, 2025-08-29 17:26:13.023
13.0, -763.3304105061106, -600.7644392321818, -206.06848755851388, -78.75855316687375, 0.0, 0.04800000227987766, 0.9760000463575125, 0.0, 0.0, 0.0, 0.0, 0.0, 1.7564991730235896E9, 0.0, 2025-08-29 17:26:13.023
14.0, -996.2700792462565, -370.3585527120158, -62.598445458337665, 131.5771602410823, 0.0, 0.04800000227987766, 0.9760000463575125, 0.0, 0.0, 0.0, 0.0, 0.0, 1.7564991730392387E9, 0.0, 2025-08-29 17:26:13.039
14.0, -796.8922727084719, -508.72550132265314, -156.20814134925604, 12.132235456258059, 0.0, 0.04800000227987766, 0.9760000463575125, 0.0, 0.0, 0.0, 0.0, 0.0, 1.7564991730392387E9, 0.0, 2025-08-29 17:26:13.039
15.0, -791.2618533251807, -275.3501342376694, -225.4449092289433, -109.80346269905567, 0.0, 0.04800000227987766, 0.9760000463575125, 0.0, 0.0, 0.0, 0.0, 0.0, 1.7564991730399644E9, 0.0, 2025-08-29 17:26:13.039
15.0, -717.2922420515679, -477.8096183389425, -87.9287878582254, 79.65238925628364, 0.0, 0.04800000227987766, 0.9760000463575125, 0.0, 0.0, 0.0, 0.0, 0.0, 1.7564991730399644E9, 0.0, 2025-08-29 17:26:13.039
16.0, -625.2832233416848, -277.0630084173754, -91.00298562180251, 94.4549132809043, 0.0, 0.04800000227987766, 0.9760000463575125, 0.0, 0.0, 0.0, 0.0, 0.0, 1.7564991730535429E9, 0.0, 2025-08-29 17:26:13.053
16.0, -398.56674812780693, -500.2621077229269, -228.45926859322935, -96.32112335879356, 0.0, 0.04800000227987766, 0.9760000463575125, 0.0, 0.0, 0.0, 0.0, 0.0, 1.7564991730535429E9, 0.0, 2025-08-29 17:26:13.053
17.0, -615.9035542528145, -371.90313139371574, -127.2089570928365, 23.512751021422446, 0.0, 0.04800000227987766, 0.9760000463575125, 0.0, 0.0, 0.0, 0.0, 0.0, 1.7564991730692556E9, 0.0, 2025-08-29 17:26:13.069
17.0, -585.25133421598, -594.0587986116298, -61.54005377087742, 149.3267254307866, 0.0, 0.04800000227987766, 0.9760000463575125, 0.0, 0.0, 0.0, 0.0, 0.0, 1.7564991730692556E9, 0.0, 2025-08-29 17:26:13.069
18.0, -690.3144737211987, -398.1366596329026, -201.36369341425598, -59.804740191437304, 0.0, 0.04800000227987766, 0.9760000463575125, 0.0, 0.0, 0.0, 0.0, 0.0, 1.7564991730699804E9, 0.0, 2025-08-29 17:26:13.069
18.0, -767.7491023037583, -603.8573364955373, -218.6644706092775, -82.90984211768955, 0.0, 0.04800000227987766, 0.9760000463575125, 0.0, 0.0, 0.0, 0.0, 0.0, 1.7564991730699804E9, 0.0, 2025-08-29 17:26:13.069
19.0, -1005.2701484896243, -382.6740432661027, -29.272196953184903, 149.39778352994472, 0.0, 0.04800000227987766, 0.9760000463575125, 0.0, 0.0, 0.0, 0.0, 0.0, 1.7564991730836003E9, 0.0, 2025-08-29 17:26:13.083
19.0, -760.8115878859535, -482.78929512994364, -139.44964964780957, 40.1665255241096, 0.0, 0.04800000227987766, 0.9760000463575125, 0.0, 0.0, 0.0, 0.0, 0.0, 1.7564991730836003E9, 0.0, 2025-08-29 17:26:13.083
20.0, -792.7204143078998, -270.54810269456357, -247.36446286924183, -128.6525584757328, 0.0, 0.04800000227987766, 0.9760000463575125, 0.0, 0.0, 0.0, 0.0, 0.0, 1.7564991730992415E9, 0.0, 2025-08-29 17:26:13.099
20.0, -737.1174517166801, -500.59308886900544, -91.30591751821339, 79.10262396279722, 0.0, 0.04800000227987766, 0.9760000463575125, 0.0, 0.0, 0.0, 0.0, 0.0, 1.7564991730992415E9, 0.0, 2025-08-29 17:26:13.099
21.0, -599.3918959484436, -256.9834855552763, -117.06260851304978, 77.87593677733094, 0.0, 0.04800000227987766, 0.9760000463575125, 0.0, 0.0, 0.0, 0.0, 0.0, 1.7564991730999904E9, 0.0, 2025-08-29 17:26:13.099
21.0, -399.22497052000836, -492.89824471017346, -278.0241627059877, -150.79650611337274, 0.0, 0.04800000227987766, 0.9760000463575125, 0.0, 0.0, 0.0, 0.0, 0.0, 1.7564991730999904E9, 0.0, 2025-08-29 17:26:13.099
22.0, -175.46488622110337, -413.303823903203, -185.70847219973803, -42.99388989061117, 0.0, 0.04800000227987766, 0.9760000463575125, 0.0, 0.0, 0.0, 0.0, 0.0, 1.7564991731135747E9, 0.0, 2025-08-29 17:26:13.113
22.0, -105.84664854593575, -614.3627154710703, -120.40607907343656, 69.51726037636399, 0.0, 0.04800000227987766, 0.9760000463575125, 0.0, 0.0, 0.0, 0.0, 0.0, 1.7564991731135747E9, 0.0, 2025-08-29 17:26:13.113
23.0, -208.32925708172843, -399.7261171140708, -297.23228887841105, -150.49357421696186, 0.0, 0.04800000227987766, 0.9760000463575125, 0.0, 0.0, 0.0, 0.0, 0.0, 1.7564991731292577E9, 0.0, 2025-08-29 17:26:13.129
23.0, -335.82992637110874, -163.68794126063585, -268.3789607202634, -165.46065383963287, 0.0, 0.04800000227987766, 0.9760000463575125, 0.0, 0.0, 0.0, 0.0, 0.0, 1.7564991731292577E9, 0.0, 2025-08-29 17:26:13.129
24.0, -555.1189602729864, 70.98143120901659, -150.69552881456912, 28.748610959388316, 0.0, 0.04800000227987766, 0.9760000463575125, 0.0, 0.0, 0.0, 0.0, 0.0, 1.756499173129995E9, 0.0, 2025-08-29 17:26:13.129
24.0, -782.454388929531, -5.991319729015231, -285.96397031191736, -127.48196978960186, 0.0, 0.04800000227987766, 0.9760000463575125, 0.0, 0.0, 0.0, 0.0, 0.0, 1.756499173129995E9, 0.0, 2025-08-29 17:26:13.129
25.0, -856.8110798485577, 166.38253917871043, -358.5778678515926, -267.73569792788476, 0.0, 0.04800000227987766, 0.9760000463575125, 0.0, 0.0, 0.0, 0.0, 0.0, 1.7564991731435907E9, 0.0, 2025-08-29 17:26:13.143
25.0, -811.9528498300351, -74.89336656266823, -216.26719473768026, -73.48529422935098, 0.0, 0.04800000227987766, 0.9760000463575125, 0.0, 0.0, 0.0, 0.0, 0.0, 1.7564991731435907E9, 0.0, 2025-08-29 17:26:13.143
26.0, -638.0549816903658, -282.22781025618315, -245.03450519684702, -68.70570208597928, 0.0, 0.04800000227987766, 0.9760000463575125, 0.0, 0.0, 0.0, 0.0, 0.0, 1.7564991731592734E9, 0.0, 2025-08-29 17:26:13.159
26.0, -451.91268109576777, -50.144578605890274, -406.97217327822, -306.20430887211114, 0.0, 0.04800000227987766, 0.9760000463575125, 0.0, 0.0, 0.0, 0.0, 0.0, 1.7564991731592734E9, 0.0, 2025-08-29 17:26:13.159
27.0, -250.3825621334836, 12.040607907343656, -268.18074602261186, -146.94066925905645, 0.0, 0.04800000227987766, 0.9760000463575125, 0.0, 0.0, 0.0, 0.0, 0.0, 1.7564991731600125E9, 0.0, 2025-08-29 17:26:13.160
27.0, -127.97189668379724, -131.42008444294333, -194.04844910092652, -16.795890701003373, 0.0, 0.04800000227987766, 0.9760000463575125, 0.0, 0.0, 0.0, 0.0, 0.0, 1.7564991731600125E9, 0.0, 2025-08-29 17:26:13.160
28.0, -201.83679075865075, 99.6795535190031, -337.21181940473616, -217.9538896176964, 0.0, 0.04800000227987766, 0.9760000463575125, 0.0, 0.0, 0.0, 0.0, 0.0, 1.7564991731735425E9, 0.0, 2025-08-29 17:26:13.173
28.0, -387.7210382563062, 301.13861438212916, -311.7356209065765, -217.4751824233681, 0.0, 0.04800000227987766, 0.9760000463575125, 0.0, 0.0, 0.0, 0.0, 0.0, 1.7564991731735425E9, 0.0, 2025-08-29 17:26:13.173
29.0, -577.4087640088983, 541.0588063895702, -166.5265253270045, 3.3546902602538466, 0.0, 0.04800000227987766, 0.9760000463575125, 0.0, 0.0, 0.0, 0.0, 0.0, 1.7564991731892428E9, 0.0, 2025-08-29 17:26:13.189
29.0, -753.0999141773209, 507.46141513762996, -279.9838702827692, -130.71324335131794, 0.0, 0.04800000227987766, 0.9760000463575125, 0.0, 0.0, 0.0, 0.0, 0.0, 1.7564991731892428E9, 0.0, 2025-08-29 17:26:13.189
30.0, -869.2350275013596, 665.4703183155507, -333.8197301449254, -243.95367410965264, 0.0, 0.04800000227987766, 0.9760000463575125, 0.0, 0.0, 0.0, 0.0, 0.0, 1.7564991731899772E9, 0.0, 2025-08-29 17:26:13.189
30.0, -821.590572015848, 905.3306719237007, -180.94757955614477, -29.462931850925088, 0.0, 0.04800000227987766, 0.9760000463575125, 0.0, 0.0, 0.0, 0.0, 0.0, 1.7564991731899772E9, 0.0, 2025-08-29 17:26:13.189
31.0, -1065.5535958753899, 738.4282866511494, -198.74576344527304, -33.2738899057731, 0.0, 0.06400000303983688, 0.9760000463575125, 0.0, 0.0, 0.0, 0.0, 0.0, 1.756499173203603E9, 0.0, 2025-08-29 17:26:13.203
31.0, -913.4705641772598, 961.9247080031782, -343.18443963397294, -243.19821431860328, 0.0, 0.06400000303983688, 0.9760000463575125, 0.0, 0.0, 0.0, 0.0, 0.0, 1.756499173203603E9, 0.0, 2025-08-29 17:26:13.203
32.0, -764.5832769912668, 976.7216221778654, -229.05391268618405, -109.65760660078377, 0.0, 0.06400000303983688, 0.9760000463575125, 0.0, 0.0, 0.0, 0.0, 0.0, 1.756499173235632E9, 0.0, 2025-08-29 17:26:13.235
32.0, -597.0544584761374, 859.3093330189586, -156.43253534659743, 11.3019776660949, 0.0, 0.06400000303983688, 0.9760000463575125, 0.0, 0.0, 0.0, 0.0, 0.0, 1.756499173235632E9, 0.0, 2025-08-29 17:26:13.235
33.0, -679.0685945544392, 1091.336466169916, -318.08971093129367, -198.63730634655803, 0.0, 0.06400000303983688, 0.9760000463575125, 0.0, 0.0, 0.0, 0.0, 0.0, 1.7564991732363613E9, 0.0, 2025-08-29 17:26:13.236
33.0, -914.8730266606435, 1251.682806820143, -290.41445125918835, -191.9017465263605, 0.0, 0.06400000303983688, 0.9760000463575125, 0.0, 0.0, 0.0, 0.0, 0.0, 1.7564991732363613E9, 0.0, 2025-08-29 17:26:13.236
34.0, -1070.1611526207998, 1031.5560353281908, -142.96515560615808, 26.99459788016975, 0.0, 0.06400000303983688, 0.9760000463575125, 0.0, 0.0, 0.0, 0.0, 0.0, 1.756499173237087E9, 0.0, 2025-08-29 17:26:13.237
34.0, -1210.5626068073325, 1021.3591980990022, -250.02353173773736, -106.80780283454806, 0.0, 0.06400000303983688, 0.9760000463575125, 0.0, 0.0, 0.0, 0.0, 0.0, 1.756499173237087E9, 0.0, 2025-08-29 17:26:13.237
35.0, -1375.7726873499341, 1129.317020169925, -318.20938772987574, -226.76135401334614, 0.0, 0.06400000303983688, 0.9760000463575125, 0.0, 0.0, 0.0, 0.0, 0.0, 1.7564991732378187E9, 0.0, 2025-08-29 17:26:13.237
35.0, -1314.2083242293447, 886.8069474431686, -157.24035373702645, -4.278445549309254, 0.0, 0.06400000303983688, 0.9760000463575125, 0.0, 0.0, 0.0, 0.0, 0.0, 1.7564991732378187E9, 0.0, 2025-08-29 17:26:13.237
36.0, -1527.7809210489504, 748.5447160312906, -194.52341639529914, -27.630380872637033, 0.0, 0.06400000303983688, 0.9760000463575125, 0.0, 0.0, 0.0, 0.0, 0.0, 1.756499173248548E9, 0.0, 2025-08-29 17:26:13.248
36.0, -1389.4794206875376, 961.0420916136354, -332.73889905773103, -228.94171568751335, 0.0, 0.06400000303983688, 0.9760000463575125, 0.0, 0.0, 0.0, 0.0, 0.0, 1.756499173248548E9, 0.0, 2025-08-29 17:26:13.248
37.0, -1255.8172662211582, 958.0987903485075, -205.64587886352092, -86.0775373801589, 0.0, 0.06400000303983688, 0.9760000463575125, 0.0, 0.0, 0.0, 0.0, 0.0, 1.7564991732635767E9, 0.0, 2025-08-29 17:26:13.263
37.0, -1024.5904716607183, 891.1153121921234, -133.6602845164016, 48.6897575231269, 0.0, 0.06400000303983688, 0.9760000463575125, 0.0, 0.0, 0.0, 0.0, 0.0, 1.7564991732635767E9, 0.0, 2025-08-29 17:26:13.263
38.0, -1107.053395733703, 1124.7393826241605, -300.9534893343225, -176.048310614191, 0.0, 0.06400000303983688, 0.9760000463575125, 0.0, 0.0, 0.0, 0.0, 0.0, 1.7564991732792668E9, 0.0, 2025-08-29 17:26:13.279
38.0, -882.54533144366, 1260.6267775641754, -263.8761211736128, -165.06048454437405, 0.0, 0.06400000303983688, 0.9760000463575125, 0.0, 0.0, 0.0, 0.0, 0.0, 1.7564991732792668E9, 0.0, 2025-08-29 17:26:13.279
39.0, -987.2513105031103, 1071.9899636991322, -117.99384360201657, 46.879645944572985, 0.0, 0.06400000303983688, 0.9760000463575125, 0.0, 0.0, 0.0, 0.0, 0.0, 1.756499173279986E9, 0.0, 2025-08-29 17:26:13.279
39.0, -1124.5299482266419, 1083.2732418654487, -234.1813155254349, -87.99610605742782, 0.0, 0.06400000303983688, 0.9760000463575125, 0.0, 0.0, 0.0, 0.0, 0.0, 1.756499173279986E9, 0.0, 2025-08-29 17:26:13.279
40.0, -1324.25182556035, 1169.4872855939902, -296.08039969205856, -211.8054940905422, 0.0, 0.06400000303983688, 0.9760000463575125, 0.0, 0.0, 0.0, 0.0, 0.0, 1.7564991732935212E9, 0.0, 2025-08-29 17:26:13.293
40.0, -1270.3205982493237, 1403.5807134704664, -132.23538263328373, 9.076737192459404, 0.0, 0.06400000303983688, 0.9760000463575125, 0.0, 0.0, 0.0, 0.0, 0.0, 1.7564991732935212E9, 0.0, 2025-08-29 17:26:13.293
41.0, -1432.2077776812948, 1310.0364658287726, -159.72364730760455, -0.725540591403842, 0.0, 0.04800000227987766, 0.9760000463575125, 0.0, 0.0, 0.0, 0.0, 0.0, 1.7564991733099167E9, 0.0, 2025-08-29 17:26:13.309
41.0, -1338.9608520860784, 1496.982844913844, -294.3675255123526, -202.23509010393173, 0.0, 0.04800000227987766, 0.9760000463575125, 0.0, 0.0, 0.0, 0.0, 0.0, 1.7564991733099167E9, 0.0, 2025-08-29 17:26:13.309
42.0, -1226.4141727695242, 1474.3377506821416, -175.20309322420508, -54.36692565586418, 0.0, 0.04800000227987766, 0.9760000463575125, 0.0, 0.0, 0.0, 0.0, 0.0, 1.7564991733106208E9, 0.0, 2025-08-29 17:26:13.310
42.0, -1454.4227834180929, 1427.3477776888758, -99.79923031758517, 72.0716120461002, 0.0, 0.04800000227987766, 0.9760000463575125, 0.0, 0.0, 0.0, 0.0, 0.0, 1.7564991733106208E9, 0.0, 2025-08-29 17:26:13.310
43.0, -1548.385899854824, 1660.1939489301294, -264.43710616696626, -151.3687108065933, 0.0, 0.04800000227987766, 0.9760000463575125, 0.0, 0.0, 0.0, 0.0, 0.0, 1.7564991733235645E9, 0.0, 2025-08-29 17:26:13.323
43.0, -1362.7540956041776, 1762.5867998669855, -222.04160026926547, -127.59416678827256, 0.0, 0.04800000227987766, 0.9760000463575125, 0.0, 0.0, 0.0, 0.0, 0.0, 1.7564991733235645E9, 0.0, 2025-08-29 17:26:13.323
44.0, -1461.4313559350558, 1572.386707820464, -91.2273796191439, 79.99272015225142, 0.0, 0.04800000227987766, 0.9760000463575125, 0.0, 0.0, 0.0, 0.0, 0.0, 1.7564991733392704E9, 0.0, 2025-08-29 17:26:13.339
44.0, -1605.4605130786076, 1582.9668847951107, -225.69174262601882, -80.7444400433451, 0.0, 0.04800000227987766, 0.9760000463575125, 0.0, 0.0, 0.0, 0.0, 0.0, 1.7564991733392704E9, 0.0, 2025-08-29 17:26:13.339
45.0, -1365.8918716670014, 1628.890986301005, -291.7608152432367, -199.8378142323345, 0.0, 0.04800000227987766, 0.9760000463575125, 0.0, 0.0, 0.0, 0.0, 0.0, 1.7564991733399992E9, 0.0, 2025-08-29 17:26:13.339
45.0, -1307.2969891112298, 1873.8862225483172, -131.27796824462712, 25.536036897450686, 0.0, 0.04800000227987766, 0.9760000463575125, 0.0, 0.0, 0.0, 0.0, 0.0, 1.7564991733399992E9, 0.0, 2025-08-29 17:26:13.339
46.0, -1458.233741472941, 1789.6618055962026, -178.46428598556668, -0.22065409738570452, 0.0, 0.04800000227987766, 0.9760000463575125, 0.0, 0.0, 0.0, 0.0, 0.0, 1.756499173353529E9, 0.0, 2025-08-29 17:26:13.353
46.0, -1400.7552190539427, 1951.027268984355, -323.99501296132803, -216.68606353271753, 0.0, 0.04800000227987766, 0.9760000463575125, 0.0, 0.0, 0.0, 0.0, 0.0, 1.756499173353529E9, 0.0, 2025-08-29 17:26:13.353
47.0, -1294.1101018674672, 1918.5985964685678, -195.9445783784613, -56.188256934285164, 0.0, 0.04800000227987766, 0.9760000463575125, 0.0, 0.0, 0.0, 0.0, 0.0, 1.7564991733692625E9, 0.0, 2025-08-29 17:26:13.369
47.0, -1500.2328179753385, 1888.8346026712097, -126.08324720617384, 63.428703248500824, 0.0, 0.04800000227987766, 0.9760000463575125, 0.0, 0.0, 0.0, 0.0, 0.0, 1.7564991733692625E9, 0.0, 2025-08-29 17:26:13.369
48.0, -1616.4296396486461, 2112.132809325587, -288.97458977624774, -152.20644839666784, 0.0, 0.04800000227987766, 0.9760000463575125, 0.0, 0.0, 0.0, 0.0, 0.0, 1.756499173370012E9, 0.0, 2025-08-29 17:26:13.370
48.0, -1472.9053689991124, 2188.888646066189, -248.8267637519166, -126.04958810657263, 0.0, 0.04800000227987766, 0.9760000463575125, 0.0, 0.0, 0.0, 0.0, 0.0, 1.756499173370012E9, 0.0, 2025-08-29 17:26:13.370
49.0, -1521.6400053217076, 2027.7288771755993, -99.32800292316824, 88.30651775375009, 0.0, 0.04800000227987766, 0.9760000463575125, 0.0, 0.0, 0.0, 0.0, 0.0, 1.7564991733835213E9, 0.0, 2025-08-29 17:26:13.383
49.0, -1637.776988595724, 2057.8911703182384, -217.75941482000053, -55.769388139247894, 0.0, 0.04800000227987766, 0.9760000463575125, 0.0, 0.0, 0.0, 0.0, 0.0, 1.7564991733835213E9, 0.0, 2025-08-29 17:26:13.383
50.0, -1422.9029065915383, 2092.546953257639, -284.19125773292035, -172.01669846195728, 0.0, 0.04800000227987766, 0.9760000463575125, 0.0, 0.0, 0.0, 0.0, 0.0, 1.7564991733992386E9, 0.0, 2025-08-29 17:26:13.399
50.0, -1341.124384210445, 1850.7998201218434, -111.28446308150887, 61.67095026932657, 0.0, 0.04800000227987766, 0.9760000463575125, 0.0, 0.0, 0.0, 0.0, 0.0, 1.7564991733992386E9, 0.0, 2025-08-29 17:26:13.399
51.0, -1452.2760808435269, 1794.1272461432964, -163.90859535802156, 27.693959171883762, 0.0, 0.04800000227987766, 0.9760000463575125, 0.0, 0.0, 0.0, 0.0, 0.0, 1.7564991733999996E9, 0.0, 2025-08-29 17:26:13.399
51.0, -1412.016057820525, 1946.2252374412492, -297.93912997003645, -181.63572114799172, 0.0, 0.04800000227987766, 0.9760000463575125, 0.0, 0.0, 0.0, 0.0, 0.0, 1.7564991733999996E9, 0.0, 2025-08-29 17:26:13.399
52.0, -1313.916612032801, 1917.0353182870895, -170.31130408216268, -31.05986913200468, 0.0, 0.04800000227987766, 0.9760000463575125, 0.0, 0.0, 0.0, 0.0, 0.0, 1.7564991734136002E9, 0.0, 2025-08-29 17:26:13.413
52.0, -1473.5299322917126, 1914.6473921653815, -112.09602137189358, 80.99875324033201, 0.0, 0.04800000227987766, 0.9760000463575125, 0.0, 0.0, 0.0, 0.0, 0.0, 1.7564991734136002E9, 0.0, 2025-08-29 17:26:13.413
53.0, -1606.264591569081, 2119.563990537543, -276.77503612078726, -134.5802999055013, 0.0, 0.04800000227987766, 0.9760000463575125, 0.0, 0.0, 0.0, 0.0, 0.0, 1.7564991734456391E9, 0.0, 2025-08-29 17:26:13.445
53.0, -1480.7778584058397, 2175.36890772637, -230.04872607439756, -112.02496327273548, 0.0, 0.04800000227987766, 0.9760000463575125, 0.0, 0.0, 0.0, 0.0, 0.0, 1.7564991734456391E9, 0.0, 2025-08-29 17:26:13.445
54.0, -1497.1623601117171, 2044.449969877489, -94.03604448586702, 101.94967279210687, 0.0, 0.04800000227987766, 0.9760000463575125, 0.0, 0.0, 0.0, 0.0, 0.0, 1.7564991734463463E9, 0.0, 2025-08-29 17:26:13.446
54.0, -1618.3444684259593, 2084.104129107669, -252.2338126115501, -90.09418993256986, 0.0, 0.04800000227987766, 0.9760000463575125, 0.0, 0.0, 0.0, 0.0, 0.0, 1.7564991734463463E9, 0.0, 2025-08-29 17:26:13.446
55.0, -1425.3936799620278, 2089.4989347937517, -292.42277753539383, -191.84190812706947, 0.0, 0.04800000227987766, 0.9760000463575125, 0.0, 0.0, 0.0, 0.0, 0.0, 1.7564991734471605E9, 0.0, 2025-08-29 17:26:13.447
55.0, -1309.6493861833587, 1870.5390120879747, -129.31078086793423, 34.29488259367645, 0.0, 0.04800000227987766, 0.9760000463575125, 0.0, 0.0, 0.0, 0.0, 0.0, 1.7564991734471605E9, 0.0, 2025-08-29 17:26:13.447
56.0, -1406.0995360906236, 1832.9212283836678, -182.58191583678126, 0.17577529791742563, 0.0, 0.04800000227987766, 0.9760000463575125, 0.0, 0.0, 0.0, 0.0, 0.0, 1.7564991734478483E9, 0.0, 2025-08-29 17:26:13.447
56.0, -1413.8411289989017, 1950.26806929335, -330.91382787935436, -222.18745636753738, 0.0, 0.04800000227987766, 0.9760000463575125, 0.0, 0.0, 0.0, 0.0, 0.0, 1.7564991734478483E9, 0.0, 2025-08-29 17:26:13.447
57.0, -1318.7934415750206, 1910.8719631601125, -190.86205433867872, -53.98545586038381, 0.0, 0.04800000227987766, 0.9760000463575125, 0.0, 0.0, 0.0, 0.0, 0.0, 1.756499173458582E9, 0.0, 2025-08-29 17:26:13.458
57.0, -1464.1128642032854, 1917.2784117842093, -136.89155807811767, 53.12901877053082, 0.0, 0.04800000227987766, 0.9760000463575125, 0.0, 0.0, 0.0, 0.0, 0.0, 1.756499173458582E9, 0.0, 2025-08-29 17:26:13.458
58.0, -1624.1413133572787, 2112.1533787753433, -315.999106856063, -178.72981888242066, 0.0, 0.04800000227987766, 0.9760000463575125, 0.0, 0.0, 0.0, 0.0, 0.0, 1.756499173473584E9, 0.0, 2025-08-29 17:26:13.473
58.0, -1509.4105324666016, 2160.6954102502204, -263.1543204821646, -142.17229681555182, 0.0, 0.04800000227987766, 0.9760000463575125, 0.0, 0.0, 0.0, 0.0, 0.0, 1.756499173473584E9, 0.0, 2025-08-29 17:26:13.473
59.0, -1503.3668541382067, 2038.576456997078, -114.3885800447315, 75.91248930059373, 0.0, 0.04800000227987766, 0.9760000463575125, 0.0, 0.0, 0.0, 0.0, 0.0, 1.7564991734892726E9, 0.0, 2025-08-29 17:26:13.489
59.0, -1619.3355419142172, 2070.5413819183595, -253.01545170228928, -94.07718338537961, 0.0, 0.04800000227987766, 0.9760000463575125, 0.0, 0.0, 0.0, 0.0, 0.0, 1.7564991734892726E9, 0.0, 2025-08-29 17:26:13.489
60.0, -1479.554911120329, 2050.443159556482, -302.5242473157123, -195.3536741854623, 0.0, 0.04800000227987766, 0.9760000463575125, 0.0, 0.0, 0.0, 0.0, 0.0, 1.7564991734899683E9, 0.0, 2025-08-29 17:26:13.489
60.0, -1352.4039224768057, 1838.7461225646548, -127.28749499190599, 47.242416240274906, 0.0, 0.04800000227987766, 0.9760000463575125, 0.0, 0.0, 0.0, 0.0, 0.0, 1.7564991734899683E9, 0.0, 2025-08-29 17:26:13.489
61.0, -1433.2474698689766, 1817.3557647680864, -176.65417440701276, 14.667887626215816, 0.0, 0.04800000227987766, 0.9760000463575125, 0.0, 0.0, 0.0, 0.0, 0.0, 1.756499173503538E9, 0.0, 2025-08-29 17:26:13.503
61.0, -1462.5795052214526, 1912.4763802411035, -315.4007228631526, -186.91645988542587, 0.0, 0.04800000227987766, 0.9760000463575125, 0.0, 0.0, 0.0, 0.0, 0.0, 1.756499173503538E9, 0.0, 2025-08-29 17:26:13.503
62.0, -1360.4783664811403, 1876.565860866569, -185.91790659725666, -20.07204306218773, 0.0, 0.04800000227987766, 0.9760000463575125, 0.0, 0.0, 0.0, 0.0, 0.0, 1.7564991735192387E9, 0.0, 2025-08-29 17:26:13.519
62.0, -1462.766500219237, 1914.9596738116816, -121.32235456258059, 94.87378207594156, 0.0, 0.04800000227987766, 0.9760000463575125, 0.0, 0.0, 0.0, 0.0, 0.0, 1.7564991735192387E9, 0.0, 2025-08-29 17:26:13.519
63.0, -1631.845507266, 2101.965891296044, -285.63485911581665, -135.33201979659498, 0.0, 0.04800000227987766, 0.9760000463575125, 0.0, 0.0, 0.0, 0.0, 0.0, 1.756499173519952E9, 0.0, 2025-08-29 17:26:13.519
63.0, -1553.5937105431221, 2115.906368380878, -231.0360596626997, -98.03025763854384, 0.0, 0.04800000227987766, 0.9760000463575125, 0.0, 0.0, 0.0, 0.0, 0.0, 1.756499173519952E9, 0.0, 2025-08-29 17:26:13.519
64.0, -1510.7419368508272, 2034.690700943116, -83.53814531024545, 126.75268929824233, 0.0, 0.04800000227987766, 0.9760000463575125, 0.0, 0.0, 0.0, 0.0, 0.0, 1.7564991735335689E9, 0.0, 2025-08-29 17:26:13.533
64.0, -1630.0428754873574, 2060.926099132281, -219.48724859952927, -42.907872191630304, 0.0, 0.04800000227987766, 0.9760000463575125, 0.0, 0.0, 0.0, 0.0, 0.0, 1.7564991735335689E9, 0.0, 2025-08-29 17:26:13.533
65.0, -1503.5762885357253, 2032.0166724747978, -274.89386644307524, -143.8066330961883, 0.0, 0.04800000227987766, 0.9760000463575125, 0.0, 0.0, 0.0, 0.0, 0.0, 1.7564991735492427E9, 0.0, 2025-08-29 17:26:13.549
65.0, -1353.039705469273, 1832.5004896386527, -97.94423993956298, 98.40798753406852, 0.0, 0.04800000227987766, 0.9760000463575125, 0.0, 0.0, 0.0, 0.0, 0.0, 1.7564991735492427E9, 0.0, 2025-08-29 17:26:13.549
66.0, -1419.4285395327024, 1818.6572499526665, -153.67622907925397, 52.34737967979163, 0.0, 0.04800000227987766, 0.9760000463575125, 0.0, 0.0, 0.0, 0.0, 0.0, 1.7564991735499508E9, 0.0, 2025-08-29 17:26:13.549
66.0, -1464.08294500364, 1910.8794429600239, -294.8387529067695, -157.38246993534267, 0.0, 0.04800000227987766, 0.9760000463575125, 0.0, 0.0, 0.0, 0.0, 0.0, 1.7564991735499508E9, 0.0, 2025-08-29 17:26:13.549
67.0, -1361.8957885643467, 1878.38719214499, -155.60227755643427, 11.758245460689068, 0.0, 0.04800000227987766, 0.9760000463575125, 0.0, 0.0, 0.0, 0.0, 0.0, 1.756499173563558E9, 0.0, 2025-08-29 17:26:13.563
67.0, -1432.4920100779273, 1934.6165879787877, -99.82166971731931, 115.78730262815952, 0.0, 0.04800000227987766, 0.9760000463575125, 0.0, 0.0, 0.0, 0.0, 0.0, 1.756499173563558E9, 0.0, 2025-08-29 17:26:13.563
68.0, -1615.3151494618505, 2118.694463797845, -275.8774601314217, -127.21269699279219, 0.0, 0.04800000227987766, 0.9760000463575125, 0.0, 0.0, 0.0, 0.0, 0.0, 1.7564991735792253E9, 0.0, 2025-08-29 17:26:13.579
68.0, -1542.377750576008, 2139.351801203098, -227.93942249938846, -88.45985365193337, 0.0, 0.04800000227987766, 0.9760000463575125, 0.0, 0.0, 0.0, 0.0, 0.0, 1.7564991735792253E9, 0.0, 2025-08-29 17:26:13.579
69.0, -1472.669755301904, 2060.9036597325467, -85.43053468782455, 125.40632531419396, 0.0, 0.04800000227987766, 0.9760000463575125, 0.0, 0.0, 0.0, 0.0, 0.0, 1.7564991735799608E9, 0.0, 2025-08-29 17:26:13.579
69.0, -1593.8556035161018, 2085.175610444974, -234.57774492073804, -57.65429771691561, 0.0, 0.04800000227987766, 0.9760000463575125, 0.0, 0.0, 0.0, 0.0, 0.0, 1.7564991735799608E9, 0.0, 2025-08-29 17:26:13.579
70.0, -1482.281298188027, 2045.03900412051, -279.26954939123243, -150.57585201598704, 0.0, 0.04800000227987766, 0.9760000463575125, 0.0, 0.0, 0.0, 0.0, 0.0, 1.7564991736262925E9, 0.0, 2025-08-29 17:26:13.626
70.0, -1340.2380279209465, 1847.3030136632733, -114.82240843959153, 81.21566743776202, 0.0, 0.04800000227987766, 0.9760000463575125, 0.0, 0.0, 0.0, 0.0, 0.0, 1.7564991736262925E9, 0.0, 2025-08-29 17:26:13.626
71.0, -1384.1762425503694, 1843.1535946624354, -165.23625984229147, 36.49020386766642, 0.0, 0.06400000303983688, 0.9760000463575125, 0.0, 0.0, 0.0, 0.0, 0.0, 1.7564991736270185E9, 0.0, 2025-08-29 17:26:13.627
71.0, -1457.3586048833095, 1910.7485464615747, -299.61086525022984, -171.1939204717055, 0.0, 0.06400000303983688, 0.9760000463575125, 0.0, 0.0, 0.0, 0.0, 0.0, 1.7564991736270185E9, 0.0, 2025-08-29 17:26:13.627
72.0, -1358.5410983040929, 1886.9702625432983, -160.08641760330647, 5.7332666320726275, 0.0, 0.06400000303983688, 0.9760000463575125, 0.0, 0.0, 0.0, 0.0, 0.0, 1.7564991736277664E9, 0.0, 2025-08-29 17:26:13.627
72.0, -1414.488131691236, 1948.6337330127135, -115.45819143205881, 93.71815298963338, 0.0, 0.06400000303983688, 0.9760000463575125, 0.0, 0.0, 0.0, 0.0, 0.0, 1.7564991736277664E9, 0.0, 2025-08-29 17:26:13.627
73.0, -1601.1334488298744, 2126.7315088026226, -279.5388221880421, -140.27242763806134, 0.0, 0.06400000303983688, 0.9760000463575125, 0.0, 0.0, 0.0, 0.0, 0.0, 1.7564991736285229E9, 0.0, 2025-08-29 17:26:13.628
73.0, -1549.651855989825, 2129.1530940239318, -222.5165675636381, -93.90140808746219, 0.0, 0.06400000303983688, 0.9760000463575125, 0.0, 0.0, 0.0, 0.0, 0.0, 1.7564991736285229E9, 0.0, 2025-08-29 17:26:13.628
74.0, -1449.6843301742338, 2071.693271104712, -81.85893023014069, 116.22861082293093, 0.0, 0.06400000303983688, 0.9760000463575125, 0.0, 0.0, 0.0, 0.0, 0.0, 1.7564991736392703E9, 0.0, 2025-08-29 17:26:13.639
74.0, -1570.2418751958758, 2100.4493618640117, -221.11784498021007, -57.61689871735871, 0.0, 0.06400000303983688, 0.9760000463575125, 0.0, 0.0, 0.0, 0.0, 0.0, 1.7564991736392703E9, 0.0, 2025-08-29 17:26:13.639
75.0, -1501.661459758412, 2031.6613819790073, -270.66777949314564, -157.5919043328613, 0.0, 0.06400000303983688, 0.9760000463575125, 0.0, 0.0, 0.0, 0.0, 0.0, 1.7564991736399953E9, 0.0, 2025-08-29 17:26:13.639
75.0, -1319.5264619663358, 1869.2188274036162, -92.72707950137556, 79.73092715535313, 0.0, 0.06400000303983688, 0.9760000463575125, 0.0, 0.0, 0.0, 0.0, 0.0, 1.7564991736399953E9, 0.0, 2025-08-29 17:26:13.639
76.0, -1357.7164503638633, 1864.1232137139887, -170.13178888428956, 25.76791069470346, 0.0, 0.06400000303983688, 0.9760000463575125, 0.0, 0.0, 0.0, 0.0, 0.0, 1.7564991736699836E9, 0.0, 2025-08-29 17:26:13.669
76.0, -1460.8591512418352, 1912.240766543895, -282.0183758586645, -175.46114632114768, 0.0, 0.06400000303983688, 0.9760000463575125, 0.0, 0.0, 0.0, 0.0, 0.0, 1.7564991736699836E9, 0.0, 2025-08-29 17:26:13.669
77.0, -1340.2754269205034, 1889.4273768141866, -123.6149132354185, 33.176652506925166, 0.0, 0.06400000303983688, 0.9760000463575125, 0.0, 0.0, 0.0, 0.0, 0.0, 1.7564991736707125E9, 0.0, 2025-08-29 17:26:13.670
77.0, -1369.7290090215392, 1979.7534405440092, -94.87004217598587, 111.92024607397616, 0.0, 0.06400000303983688, 0.9760000463575125, 0.0, 0.0, 0.0, 0.0, 0.0, 1.7564991736707125E9, 0.0, 2025-08-29 17:26:13.670
78.0, -1588.1335565838963, 2138.4523552637547, -269.384993808344, 350.8867635927163, 0.0, 0.06400000303983688, 0.9760000463575125, 0.0, 0.0, 0.0, 0.0, 0.0, 1.7564991736714356E9, 0.0, 2025-08-29 17:26:13.671
78.0, -1548.410209204536, 2128.9530093763024, -216.1063790395856, 398.9108189237304, 0.0, 0.06400000303983688, 0.9760000463575125, 0.0, 0.0, 0.0, 0.0, 0.0, 1.7564991736714356E9, 0.0, 2025-08-29 17:26:13.671
79.0, -1428.2285241284408, 2091.1052218247205, -79.57011145725846, 610.3311033188365, 0.0, 0.06400000303983688, 0.9760000463575125, 0.0, 0.0, 0.0, 0.0, 0.0, 1.7564991736836004E9, 0.0, 2025-08-29 17:26:13.683
79.0, -1555.439351171255, 2111.420358384028, -228.38821049407125, 421.5147742559202, 0.0, 0.06400000303983688, 0.9760000463575125, 0.0, 0.0, 0.0, 0.0, 0.0, 1.7564991736836004E9, 0.0, 2025-08-29 17:26:13.683
80.0, -1510.345507455524, 2028.095387371257, -265.5441165538505, 323.49199641728774, 0.0, 0.06400000303983688, 0.9760000463575125, 0.0, 0.0, 0.0, 0.0, 0.0, 1.7564991736999512E9, 0.0, 2025-08-29 17:26:13.699
80.0, -1313.6922180354595, 1861.0639755502343, -98.61368203163147, 78.94928806461394, 0.0, 0.06400000303983688, 0.9760000463575125, 0.0, 0.0, 0.0, 0.0, 0.0, 1.7564991736999512E9, 0.0, 2025-08-29 17:26:13.699
81.0, -1321.16266819695, 1886.188623452559, -155.76683315448463, 22.372081534937024, 0.0, 0.04800000227987766, 0.9760000463575125, 0.0, 0.0, 0.0, 0.0, 0.0, 1.756499173700686E9, 0.0, 2025-08-29 17:26:13.700
81.0, -1462.1232374268584, 1911.1524556567892, -293.0585605278611, -187.7915964750573, 0.0, 0.04800000227987766, 0.9760000463575125, 0.0, 0.0, 0.0, 0.0, 0.0, 1.756499173700686E9, 0.0, 2025-08-29 17:26:13.700
82.0, -1350.616250297986, 1876.951070562005, -142.7706808084622, -3.0854174634441733, 0.0, 0.04800000227987766, 0.9760000463575125, 0.0, 0.0, 0.0, 0.0, 0.0, 1.7564991737135878E9, 0.0, 2025-08-29 17:26:13.713
82.0, -1351.6727720354684, 1987.5286925518885, -97.12520184926689, 83.54936501011252, 0.0, 0.04800000227987766, 0.9760000463575125, 0.0, 0.0, 0.0, 0.0, 0.0, 1.7564991737135878E9, 0.0, 2025-08-29 17:26:13.713
83.0, -1593.829424216412, 2135.7633671956137, -277.30236201453954, -159.02054611593485, 0.0, 0.04800000227987766, 0.9760000463575125, 0.0, 0.0, 0.0, 0.0, 0.0, 1.7564991737292204E9, 0.0, 2025-08-29 17:26:13.729
83.0, -1565.0976428068243, 2110.519042494707, -204.04520168248564, -98.55384363234043, 0.0, 0.04800000227987766, 0.9760000463575125, 0.0, 0.0, 0.0, 0.0, 0.0, 1.7564991737292204E9, 0.0, 2025-08-29 17:26:13.729
84.0, -1409.858135546092, 2097.7360644461587, -75.01117341127247, 107.24163122940809, 0.0, 0.04800000227987766, 0.9760000463575125, 0.0, 0.0, 0.0, 0.0, 0.0, 1.7564991737299473E9, 0.0, 2025-08-29 17:26:13.729
84.0, -1541.051956041716, 2128.0816126866266, -229.37554408237338, -85.24727958999574, 0.0, 0.04800000227987766, 0.9760000463575125, 0.0, 0.0, 0.0, 0.0, 0.0, 1.7564991737299473E9, 0.0, 2025-08-29 17:26:13.729
85.0, -1513.4608441186137, 2020.1406201655045, -269.0970215117559, -173.34810284618288, 0.0, 0.04800000227987766, 0.9760000463575125, 0.0, 0.0, 0.0, 0.0, 0.0, 1.7564991737435918E9, 0.0, 2025-08-29 17:26:13.743
85.0, -1302.7006520656869, 1858.1431136848405, -96.49689865671098, 70.41483636572957, 0.0, 0.04800000227987766, 0.9760000463575125, 0.0, 0.0, 0.0, 0.0, 0.0, 1.7564991737435918E9, 0.0, 2025-08-29 17:26:13.743
86.0, -1311.371610112954, 1896.454648830928, -168.3441167054698, 2.610450169071555, 0.0, 0.04800000227987766, 0.9760000463575125, 0.0, 0.0, 0.0, 0.0, 0.0, 1.75649917375923E9, 0.0, 2025-08-29 17:26:13.759
86.0, -1473.7767656887881, 1899.9589350894094, -295.82982639502734, -194.1307268999517, 0.0, 0.04800000227987766, 0.9760000463575125, 0.0, 0.0, 0.0, 0.0, 0.0, 1.75649917375923E9, 0.0, 2025-08-29 17:26:13.759
87.0, -1346.4013830479234, 1879.049154437147, -155.46390125807375, -15.112935720942914, 0.0, 0.04800000227987766, 0.9760000463575125, 0.0, 0.0, 0.0, 0.0, 0.0, 1.7564991737599635E9, 0.0, 2025-08-29 17:26:13.759
87.0, -1342.5044072940946, 1997.6488618319854, -137.8788916664198, 58.34991910867393, 0.0, 0.04800000227987766, 0.9760000463575125, 0.0, 0.0, 0.0, 0.0, 0.0, 1.7564991737599635E9, 0.0, 2025-08-29 17:26:13.759
88.0, -1566.4178274911828, 2150.592070519924, -231.02857986278832, -102.26008448842913, 0.0, 0.04800000227987766, 0.9760000463575125, 0.0, 0.0, 0.0, 0.0, 0.0, 1.7564991737735896E9, 0.0, 2025-08-29 17:26:13.773
88.0, -1548.5242761531845, 2123.7171494383365, -140.16771043930203, -7.726633308455348, 0.0, 0.04800000227987766, 0.9760000463575125, 0.0, 0.0, 0.0, 0.0, 0.0, 1.7564991737735896E9, 0.0, 2025-08-29 17:26:13.773
89.0, -1348.9819140173495, 2138.1082844678313, 10.318383977748454, 219.74530169647187, 0.0, 0.04800000227987766, 0.9760000463575125, 0.0, 0.0, 0.0, 0.0, 0.0, 1.7564991737892776E9, 0.0, 2025-08-29 17:26:13.789
89.0, -1479.7045071185566, 2178.0728553943336, -86.89657547045499, 84.31604450102895, 0.0, 0.04800000227987766, 0.9760000463575125, 0.0, 0.0, 0.0, 0.0, 0.0, 1.7564991737892776E9, 0.0, 2025-08-29 17:26:13.789
90.0, -1469.5039299894124, 2053.448169170879, -85.5614311862737, 39.253989934921265, 0.0, 0.04800000227987766, 0.9760000463575125, 0.0, 0.0, 0.0, 0.0, 0.0, 1.756499173790009E9, 0.0, 2025-08-29 17:26:13.790
90.0, -1692.7422982444987, 1928.0792428562418, 139.44216984789819, -144.47794513823465, 0.0, 0.04800000227987766, 0.9760000463575125, 0.0, 0.0, 0.0, 0.0, 0.0, 1.756499173790009E9, 0.0, 2025-08-29 17:26:13.790
91.0, -1677.9846530193463, 1994.7728787660599, 102.25634458847344, -173.56314709363505, 0.0, 0.04800000227987766, 0.9760000463575125, 0.0, 0.0, 0.0, 0.0, 0.0, 1.7564991738036168E9, 0.0, 2025-08-29 17:26:13.803
91.0, -1865.144206401892, 1984.4170957887545, 8.706487096846104, -322.5383219285868, 0.0, 0.04800000227987766, 0.9760000463575125, 0.0, 0.0, 0.0, 0.0, 0.0, 1.7564991738036168E9, 0.0, 2025-08-29 17:26:13.803
92.0, -1714.79835823318, 1957.6169727062806, 203.08404739387333, -100.60143885808066, 0.0, 0.04800000227987766, 0.9760000463575125, 0.0, 0.0, 0.0, 0.0, 0.0, 1.7564991738193123E9, 0.0, 2025-08-29 17:26:13.819
92.0, -1651.347215584945, 2130.6546638561413, 258.87587493285537, 11.258968816604465, 0.0, 0.04800000227987766, 0.9760000463575125, 0.0, 0.0, 0.0, 0.0, 0.0, 1.7564991738193123E9, 0.0, 2025-08-29 17:26:13.819
93.0, -1435.895319037605, 2258.140373545699, 103.88320106919855, -216.99086537910625, 0.0, 0.04800000227987766, 0.9760000463575125, 0.0, 0.0, 0.0, 0.0, 0.0, 1.756499173820019E9, 0.0, 2025-08-29 17:26:13.820
93.0, -1431.8543571354821, 2208.422143534757, 163.81135795917362, -148.77135028736666, 0.0, 0.04800000227987766, 0.9760000463575125, 0.0, 0.0, 0.0, 0.0, 0.0, 1.756499173820019E9, 0.0, 2025-08-29 17:26:13.820
94.0, -1204.719013126567, 2242.4627129314467, 302.8795378115028, 62.28242391208187, 0.0, 0.04800000227987766, 0.9760000463575125, 0.0, 0.0, 0.0, 0.0, 0.0, 1.7564991738335335E9, 0.0, 2025-08-29 17:26:13.833
94.0, -1371.6326180989854, 2256.266683667898, 130.6908039515838, -156.67375889373943, 0.0, 0.04800000227987766, 0.9760000463575125, 0.0, 0.0, 0.0, 0.0, 0.0, 1.7564991738335335E9, 0.0, 2025-08-29 17:26:13.833
95.0, -1404.9588666041382, 2099.3554411269724, 72.55779904033989, -255.04434742825106, 0.0, 0.04800000227987766, 0.9760000463575125, 0.0, 0.0, 0.0, 0.0, 0.0, 1.7564991738492408E9, 0.0, 2025-08-29 17:26:13.849
95.0, -1643.8674156735651, 1961.4653297606856, 238.10073067899793, -26.476621736306697, 0.0, 0.04800000227987766, 0.9760000463575125, 0.0, 0.0, 0.0, 0.0, 0.0, 1.7564991738492408E9, 0.0, 2025-08-29 17:26:13.849
96.0, -1628.1486161598004, 2027.4259452791885, 146.70879546180367, -124.77241227170452, 0.0, 0.04800000227987766, 0.9760000463575125, 0.0, 0.0, 0.0, 0.0, 0.0, 1.7564991738499644E9, 0.0, 2025-08-29 17:26:13.849
96.0, -1386.0181432785466, 1975.9013435896486, -25.461238898336887, -359.69048808841035, 0.0, 0.04800000227987766, 0.9760000463575125, 0.0, 0.0, 0.0, 0.0, 0.0, 1.7564991738499644E9, 0.0, 2025-08-29 17:26:13.849
97.0, -1248.5412908573635, 1925.8315629828721, 119.26166968699545, -166.55457457667217, 0.0, 0.04800000227987766, 0.9760000463575125, 0.0, 0.0, 0.0, 0.0, 0.0, 1.7564991738799677E9, 0.0, 2025-08-29 17:26:13.879
97.0, -1186.7918026889674, 2102.5717550888658, 128.6525584757328, -118.2986454484053, 0.0, 0.04800000227987766, 0.9760000463575125, 0.0, 0.0, 0.0, 0.0, 0.0, 1.7564991738799677E9, 0.0, 2025-08-29 17:26:13.879
98.0, -1003.8209372567944, 2210.258434413001, -59.10537889972329, 112.32789516914636, 0.0, 0.04800000227987766, 0.9760000463575125, 0.0, 0.0, 0.0, 0.0, 0.0, 1.756499173880705E9, 0.0, 2025-08-29 17:26:13.880
98.0, -1015.0219376240857, 2143.79293240048, -11.451573664322495, 160.9316349932924, 0.0, 0.04800000227987766, 0.9760000463575125, 0.0, 0.0, 0.0, 0.0, 0.0, 1.756499173880705E9, 0.0, 2025-08-29 17:26:13.880
99.0, -1249.7025297936052, 2198.7881612489, 102.98562507983297, 347.971511577256, 0.0, 0.04800000227987766, 0.9760000463575125, 0.0, 0.0, 0.0, 0.0, 0.0, 1.7564991738814497E9, 0.0, 2025-08-29 17:26:13.881
99.0, -1420.1316407243721, 2221.6352100782096, -71.62282405141741, 122.73229684587568, 0.0, 0.04800000227987766, 0.9760000463575125, 0.0, 0.0, 0.0, 0.0, 0.0, 1.7564991738814497E9, 0.0, 2025-08-29 17:26:13.881
100.0, -1474.3863693815656, 2046.944483147934, -111.8678874745965, 34.395859892480075, 0.0, 0.04800000227987766, 0.9760000463575125, 0.0, 0.0, 0.0, 0.0, 0.0, 1.7564991738942986E9, 0.0, 2025-08-29 17:26:13.894
100.0, -1660.9849377707578, 1932.1669535078108, 63.12951125204563, -209.66066146595404, 0.0, 0.04800000227987766, 0.9760000463575125, 0.0, 0.0, 0.0, 0.0, 0.0, 1.7564991738942986E9, 0.0, 2025-08-29 17:26:13.894
0.0, 822.3198525072075, 547.0632157684304, -23.11445167614147, 182.85866843350232, 0.0, 0.04800000227987766, 0.9760000463575125, 0.0, 0.0, 0.0, 0.0, 0.0, 1.7564991738949912E9, 0.0, 2025-08-29 17:26:13.894
1.0, 1045.5114720128477, 481.3195144473575, -162.21629062807187, -35.196198482997715, 0.0, 0.04800000227987766, 0.9760000463575125, 0.0, 0.0, 0.0, 0.0, 0.0, 1.756499173908565E9, 0.0, 2025-08-29 17:26:13.908
1.0, 1202.8584128986113, 442.06926441239193, -10.855059621389955, 162.08352417964488, 0.0, 0.04800000227987766, 0.9760000463575125, 0.0, 0.0, 0.0, 0.0, 0.0, 1.756499173908565E9, 0.0, 2025-08-29 17:26:13.908
2.0, 1288.0907328887843, 637.0414688023739, 2.9077722155489028, 220.63539788592607, 0.0, 0.04800000227987766, 0.9760000463575125, 0.0, 0.0, 0.0, 0.0, 0.0, 1.756499173924238E9, 0.0, 2025-08-29 17:26:13.924
2.0, 1425.3862001621164, 722.7562358868308, -176.78320095548406, 449.6724810223095, 0.0, 0.04800000227987766, 0.9760000463575125, 0.0, 0.0, 0.0, 0.0, 0.0, 1.756499173924238E9, 0.0, 2025-08-29 17:26:13.924
3.0, 1412.4760655150749, 643.975243320223, -96.26689480943605, 523.7823385442607, 0.0, 0.04800000227987766, 0.9760000463575125, 0.0, 0.0, 0.0, 0.0, 0.0, 1.7564991739249673E9, 0.0, 2025-08-29 17:26:13.924
3.0, 1190.2381204981357, 706.9962974735536, 25.97921504219994, 727.8836387260817, 0.0, 0.04800000227987766, 0.9760000463575125, 0.0, 0.0, 0.0, 0.0, 0.0, 1.7564991739249673E9, 0.0, 2025-08-29 17:26:13.924
4.0, 998.6112566185184, 734.417243948672, -133.3367831702344, 528.386155389715, 0.0, 0.04800000227987766, 0.9760000463575125, 0.0, 0.0, 0.0, 0.0, 0.0, 1.756499173938605E9, 0.0, 2025-08-29 17:26:13.938
4.0, 900.17708978476, 537.7321653789841, -166.00480928318575, 447.84366994397715, 0.0, 0.04800000227987766, 0.9760000463575125, 0.0, 0.0, 0.0, 0.0, 0.0, 1.756499173938605E9, 0.0, 2025-08-29 17:26:13.938
5.0, 718.4815302374773, 427.4499954856001, -8.050134654622525, 684.0146122458391, 0.0, 0.04800000227987766, 0.9760000463575125, 0.0, 0.0, 0.0, 0.0, 0.0, 1.7564991739543273E9, 0.0, 2025-08-29 17:26:13.954
5.0, 756.0226459926926, 520.1434158873744, -80.06190830143169, 609.3437697305344, 0.0, 0.04800000227987766, 0.9760000463575125, 0.0, 0.0, 0.0, 0.0, 0.0, 1.7564991739543273E9, 0.0, 2025-08-29 17:26:13.954
6.0, 941.0635460503399, 425.53142680833116, -216.897367880214, 401.6559054912068, 0.0, 0.04800000227987766, 0.9760000463575125, 0.0, 0.0, 0.0, 0.0, 0.0, 1.7564991739550014E9, 0.0, 2025-08-29 17:26:13.955
6.0, 1093.1858466980048, 394.4640778764151, -64.70587908336893, 606.5126654640771, 0.0, 0.04800000227987766, 0.9760000463575125, 0.0, 0.0, 0.0, 0.0, 0.0, 1.7564991739550014E9, 0.0, 2025-08-29 17:26:13.955
7.0, 1211.0338342017494, 605.5141121759079, -41.843870654236525, 675.0949508515187, 0.0, 0.04800000227987766, 0.9760000463575125, 0.0, 0.0, 0.0, 0.0, 0.0, 1.756499173984984E9, 0.0, 2025-08-29 17:26:13.984
7.0, 1342.3230221462436, 677.0733579280786, -221.44134632637724, 912.2102178921923, 0.0, 0.04800000227987766, 0.9760000463575125, 0.0, 0.0, 0.0, 0.0, 0.0, 1.756499173984984E9, 0.0, 2025-08-29 17:26:13.984
8.0, 1311.7007213090546, 594.1560360104777, -142.74637145875022, 991.8364278487861, 0.0, 0.04800000227987766, 0.9760000463575125, 0.0, 0.0, 0.0, 0.0, 0.0, 1.7564991739857175E9, 0.0, 2025-08-29 17:26:13.985
8.0, 1157.188624589704, 702.4710185271688, -6.931904567871243, 1196.7044075215235, 0.0, 0.04800000227987766, 0.9760000463575125, 0.0, 0.0, 0.0, 0.0, 0.0, 1.7564991739857175E9, 0.0, 2025-08-29 17:26:13.985
9.0, 963.5833536335267, 720.4300181143917, -168.51802205340937, 981.6526802694425, 0.0, 0.04800000227987766, 0.9760000463575125, 0.0, 0.0, 0.0, 0.0, 0.0, 1.756499173986445E9, 0.0, 2025-08-29 17:26:13.986
9.0, 843.7719186530448, 498.20142284734175, -203.53844523848966, 901.0316569246352, 0.0, 0.04800000227987766, 0.9760000463575125, 0.0, 0.0, 0.0, 0.0, 0.0, 1.756499173986445E9, 0.0, 2025-08-29 17:26:13.986
10.0, 702.878667622339, 408.70935680763796, -35.018553235102445, 669.0774518228136, 0.0, 0.04800000227987766, 0.9760000463575125, 0.0, 0.0, 0.0, 0.0, 0.0, 1.7564991739985416E9, 0.0, 2025-08-29 17:26:13.998
10.0, 750.7643466549926, 513.4265555669554, -117.69278165558353, 579.7611610810272, 0.0, 0.04800000227987766, 0.9760000463575125, 0.0, 0.0, 0.0, 0.0, 0.0, 1.7564991739985416E9, 0.0, 2025-08-29 17:26:13.998
11.0, 909.7007450219244, 402.3926657824777, -244.62872605165467, 381.4118270310573, 0.0, 0.04800000227987766, 0.9760000463575125, 0.0, 0.0, 0.0, 0.0, 0.0, 1.756499174014292E9, 0.0, 2025-08-29 17:26:14.014
11.0, 1068.5212064902298, 389.9799378295429, -85.06215454218909, 580.8158128685318, 0.0, 0.04800000227987766, 0.9760000463575125, 0.0, 0.0, 0.0, 0.0, 0.0, 1.756499174014292E9, 0.0, 2025-08-29 17:26:14.014
12.0, 1224.5797518412583, 618.719698919449, -84.66572514688596, 619.4938582102768, 0.0, 0.04800000227987766, 0.9760000463575125, 0.0, 0.0, 0.0, 0.0, 0.0, 1.7564991740150187E9, 0.0, 2025-08-29 17:26:14.015
12.0, 1336.384061016608, 673.7373671676032, -220.24831824051216, 427.13584388932213, 0.0, 0.04800000227987766, 0.9760000463575125, 0.0, 0.0, 0.0, 0.0, 0.0, 1.7564991740150187E9, 0.0, 2025-08-29 17:26:14.015
13.0, 1286.561113806907, 588.1834157812409, -143.62150804838166, 495.2469018823467, 0.0, 0.04800000227987766, 0.9760000463575125, 0.0, 0.0, 0.0, 0.0, 0.0, 1.756499174028548E9, 0.0, 2025-08-29 17:26:14.028
13.0, 1166.897404874675, 718.8555202330463, -2.9189919154159725, 710.3622074336745, 0.0, 0.04800000227987766, 0.9760000463575125, 0.0, 0.0, 0.0, 0.0, 0.0, 1.756499174028548E9, 0.0, 2025-08-29 17:26:14.028
14.0, 962.6857776441611, 721.4061320028268, -176.50270845880732, 479.950711063575, 0.0, 0.04800000227987766, 0.9760000463575125, 0.0, 0.0, 0.0, 0.0, 0.0, 1.756499174044294E9, 0.0, 2025-08-29 17:26:14.044
14.0, 808.5420610704459, 482.9463709280826, -215.4537664973177, 406.7683487306349, 0.0, 0.04800000227987766, 0.9760000463575125, 0.0, 0.0, 0.0, 0.0, 0.0, 1.756499174044294E9, 0.0, 2025-08-29 17:26:14.044
15.0, 680.6898411852308, 408.5111421099864, -59.41392064606771, 643.5788139249198, 0.0, 0.04800000227987766, 0.9760000463575125, 0.0, 0.0, 0.0, 0.0, 0.0, 1.7564991740450237E9, 0.0, 2025-08-29 17:26:14.045
15.0, 773.0017917915247, 527.4324809010141, -135.15063464874402, 548.2824231539853, 0.0, 0.04800000227987766, 0.9760000463575125, 0.0, 0.0, 0.0, 0.0, 0.0, 1.7564991740450237E9, 0.0, 2025-08-29 17:26:14.045
16.0, 896.8654083739966, 398.37601323006675, -263.2496879310347, 339.8017001240514, 0.0, 0.04800000227987766, 0.9760000463575125, 0.0, 0.0, 0.0, 0.0, 0.0, 1.7564991740585406E9, 0.0, 2025-08-29 17:26:14.058
16.0, 1070.5183130665682, 382.32062272029, -95.3580991202034, 561.3346739993431, 0.0, 0.04800000227987766, 0.9760000463575125, 0.0, 0.0, 0.0, 0.0, 0.0, 1.7564991740585406E9, 0.0, 2025-08-29 17:26:14.058
17.0, 1260.8904405110516, 624.3781675524078, -78.71554431738332, 616.5505569451489, 0.0, 0.04800000227987766, 0.9760000463575125, 0.0, 0.0, 0.0, 0.0, 0.0, 1.756499174074304E9, 0.0, 2025-08-29 17:26:14.074
17.0, 1341.3581279576756, 679.3920959006064, -250.63874528044835, 859.9376362115145, 0.0, 0.04800000227987766, 0.9760000463575125, 0.0, 0.0, 0.0, 0.0, 0.0, 1.756499174074304E9, 0.0, 2025-08-29 17:26:14.074
18.0, 1267.2108714361675, 576.5261476193555, -161.78994203312322, 951.9877938209102, 0.0, 0.04800000227987766, 0.9760000463575125, 0.0, 0.0, 0.0, 0.0, 0.0, 1.756499174075013E9, 0.0, 2025-08-29 17:26:14.075
18.0, 1182.6984821874648, 727.2179365339689, -36.52199301728979, 1151.4553579576313, 0.0, 0.04800000227987766, 0.9760000463575125, 0.0, 0.0, 0.0, 0.0, 0.0, 1.756499174075013E9, 0.0, 2025-08-29 17:26:14.075
19.0, 962.5361816459335, 705.9547353358939, -214.3804152100347, 925.6476784329861, 0.0, 0.04800000227987766, 0.9760000463575125, 0.0, 0.0, 0.0, 0.0, 0.0, 1.756499174088569E9, 0.0, 2025-08-29 17:26:14.088
19.0, 783.9709183615632, 465.3968903860077, -224.74367798725143, 870.48415408656, 0.0, 0.04800000227987766, 0.9760000463575125, 0.0, 0.0, 0.0, 0.0, 0.0, 1.756499174088569E9, 0.0, 2025-08-29 17:26:14.088
20.0, 696.3749815993942, 426.1316807512194, -49.56676406273618, 636.9105723039247, 0.0, 0.04800000227987766, 0.9920000471174717, 0.0, 0.0, 0.0, 0.0, 0.0, 1.7564991741043153E9, 0.0, 2025-08-29 17:26:14.104
20.0, 784.9619918498211, 528.3281869404018, -135.22169274790213, 534.8674020129256, 0.0, 0.04800000227987766, 0.9920000471174717, 0.0, 0.0, 0.0, 0.0, 0.0, 1.7564991741043153E9, 0.0, 2025-08-29 17:26:14.104
21.0, 875.1665088310838, 378.8518655113876, -257.131211603526, 350.68106909515336, 0.0, 0.04800000227987766, 0.9920000471174717, 0.0, 0.0, 0.0, 0.0, 0.0, 1.7564991741050093E9, 0.0, 2025-08-29 17:26:14.105
21.0, 1056.6058852314018, 378.9023541607894, -89.57621378870681, 570.9948355848901, 0.0, 0.04800000227987766, 0.9920000471174717, 0.0, 0.0, 0.0, 0.0, 0.0, 1.7564991741050093E9, 0.0, 2025-08-29 17:26:14.105
22.0, 1283.2026836466976, 161.62351648509502, -66.94607915682718, 629.9057396869175, 0.0, 0.04800000227987766, 0.9920000471174717, 0.0, 0.0, 0.0, 0.0, 0.0, 1.7564991741185427E9, 0.0, 2025-08-29 17:26:14.118
22.0, 1321.1103095975704, 179.03275077883154, -257.26958790188655, 862.6976823788136, 0.0, 0.04800000227987766, 0.9920000471174717, 0.0, 0.0, 0.0, 0.0, 0.0, 1.7564991741185427E9, 0.0, 2025-08-29 17:26:14.118
23.0, 1241.4018218419515, 67.28454010281712, -165.42138489009812, 956.8608834631741, 0.0, 0.04800000227987766, 0.9920000471174717, 0.0, 0.0, 0.0, 0.0, 0.0, 1.7564991741342628E9, 0.0, 2025-08-29 17:26:14.134
23.0, 1179.5457465248182, 230.08238517399877, -32.976567859295756, 1152.895219440572, 0.0, 0.04800000227987766, 0.9920000471174717, 0.0, 0.0, 0.0, 0.0, 0.0, 1.7564991741342628E9, 0.0, 2025-08-29 17:26:14.134
24.0, 983.1579900016077, 237.04607889149338, -192.50574036920443, 942.3238923354074, 0.0, 0.04800000227987766, 0.9920000471174717, 0.0, 0.0, 0.0, 0.0, 0.0, 1.7564991741349888E9, 0.0, 2025-08-29 17:26:14.134
24.0, 768.3867552462034, 452.4512266893871, -218.1951131648384, 877.0401987088844, 0.0, 0.04800000227987766, 0.9920000471174717, 0.0, 0.0, 0.0, 0.0, 0.0, 1.7564991741349888E9, 0.0, 2025-08-29 17:26:14.134
25.0, 695.7429385068826, 413.8891182462685, -53.67691411403939, 1121.2332264157012, 0.0, 0.04800000227987766, 0.9920000471174717, 0.0, 0.0, 0.0, 0.0, 0.0, 1.7564991741485617E9, 0.0, 2025-08-29 17:26:14.148
25.0, 798.2573361922987, 533.5135582289658, -134.9711194508709, 1025.6937421476468, 0.0, 0.04800000227987766, 0.9920000471174717, 0.0, 0.0, 0.0, 0.0, 0.0, 1.7564991741485617E9, 0.0, 2025-08-29 17:26:14.148
26.0, 856.2201756555587, 366.25401251064613, -253.04350095195696, 836.3575669908896, 0.0, 0.04800000227987766, 0.9920000471174717, 0.0, 0.0, 0.0, 0.0, 0.0, 1.7564991741642635E9, 0.0, 2025-08-29 17:26:14.164
26.0, 1046.3473396529444, 361.28368546953425, -78.63700641831383, 1058.4328263597563, 0.0, 0.04800000227987766, 0.9920000471174717, 0.0, 0.0, 0.0, 0.0, 0.0, 1.7564991741642635E9, 0.0, 2025-08-29 17:26:14.164
27.0, 1280.2219833820127, 160.26967270113528, -67.87731424579397, 1108.4465084671974, 0.0, 0.04800000227987766, 0.9920000471174717, 0.0, 0.0, 0.0, 0.0, 0.0, 1.7564991741650107E9, 0.0, 2025-08-29 17:26:14.165
27.0, 1310.3393977251835, 169.35014979355037, -241.55078838812187, 1352.6264465241693, 0.0, 0.04800000227987766, 0.9920000471174717, 0.0, 0.0, 0.0, 0.0, 0.0, 1.7564991741650107E9, 0.0, 2025-08-29 17:26:14.165
28.0, 1217.9563890197314, 47.87819923274219, -153.02361653698608, 1450.4622293650173, 0.0, 0.04800000227987766, 0.9920000471174717, 0.0, 0.0, 0.0, 0.0, 0.0, 1.7564991741785429E9, 0.0, 2025-08-29 17:26:14.178
28.0, 1199.1129030929878, 238.9272485692054, -26.457922236528248, 1648.187000122387, 0.0, 0.04800000227987766, 0.9920000471174717, 0.0, 0.0, 0.0, 0.0, 0.0, 1.7564991741785429E9, 0.0, 2025-08-29 17:26:14.178
29.0, 983.0420531029813, 234.47115777200088, -191.8512578769587, 1421.4032067093067, 0.0, 0.04800000227987766, 0.9920000471174717, 0.0, 0.0, 0.0, 0.0, 0.0, 1.7564991741942635E9, 0.0, 2025-08-29 17:26:14.194
29.0, 744.8590446249582, 439.08669419772923, -209.9673332623206, 1377.0442533348687, 0.0, 0.04800000227987766, 0.9920000471174717, 0.0, 0.0, 0.0, 0.0, 0.0, 1.7564991741942635E9, 0.0, 2025-08-29 17:26:14.194
30.0, 708.7652701525949, 425.74647105578333, -29.763993797358125, 1141.0546961808577, 0.0, 0.04800000227987766, 0.9760000463575125, 0.0, 0.0, 0.0, 0.0, 0.0, 1.7564991741950085E9, 0.0, 2025-08-29 17:26:14.195
30.0, 802.920991437044, 547.3380984151736, -140.88764118077233, 1027.7768664229661, 0.0, 0.04800000227987766, 0.9760000463575125, 0.0, 0.0, 0.0, 0.0, 0.0, 1.7564991741950085E9, 0.0, 2025-08-29 17:26:14.195
31.0, 847.9849159531295, 371.55906059779227, -241.71534398617223, 860.498621204868, 0.0, 0.04800000227987766, 0.9760000463575125, 0.0, 0.0, 0.0, 0.0, 0.0, 1.756499174208563E9, 0.0, 2025-08-29 17:26:14.208
31.0, 1041.0853004152887, 370.923277605325, -59.155867549125105, 1087.0542807206511, 0.0, 0.04800000227987766, 0.9760000463575125, 0.0, 0.0, 0.0, 0.0, 0.0, 1.756499174208563E9, 0.0, 2025-08-29 17:26:14.208
32.0, 819.636474289, 174.18771038623527, -62.48811840964481, 1130.6727339038625, 0.0, 0.04800000227987766, 0.9760000463575125, 0.0, 0.0, 0.0, 0.0, 0.0, 1.7564991742242656E9, 0.0, 2025-08-29 17:26:14.224
32.0, 821.1885327706113, 180.3286261134781, -233.73813738068566, 1362.1968505107798, 0.0, 0.04800000227987766, 0.9760000463575125, 0.0, 0.0, 0.0, 0.0, 0.0, 1.7564991742242656E9, 0.0, 2025-08-29 17:26:14.224
33.0, 731.0419842386618, 49.30871096579358, -126.29081165371463, 1478.1748880366795, 0.0, 0.04800000227987766, 0.9760000463575125, 0.0, 0.0, 0.0, 0.0, 0.0, 1.756499174225004E9, 0.0, 2025-08-29 17:26:14.225
33.0, 726.7317495397292, 250.8780988776125, -9.789188134018332, 1666.819181701634, 0.0, 0.04800000227987766, 0.9760000463575125, 0.0, 0.0, 0.0, 0.0, 0.0, 1.756499174225004E9, 0.0, 2025-08-29 17:26:14.225
34.0, 504.5723424218595, 242.72698692418635, -182.31825288990512, 1448.5623601875268, 0.0, 0.04800000227987766, 0.9760000463575125, 0.0, 0.0, 0.0, 0.0, 0.0, 1.7564991742386231E9, 0.0, 2025-08-29 17:26:14.238
34.0, 738.6321111987345, 436.4781139786355, -185.49342795228586, 1401.9183279401623, 0.0, 0.04800000227987766, 0.9760000463575125, 0.0, 0.0, 0.0, 0.0, 0.0, 1.7564991742386231E9, 0.0, 2025-08-29 17:26:14.238
35.0, 726.0772670474835, 439.9057322880253, -10.320253927726299, 1163.2397827180102, 0.0, 0.04800000227987766, 0.9760000463575125, 0.0, 0.0, 0.0, 0.0, 0.0, 1.7564991742542715E9, 0.0, 2025-08-29 17:26:14.254
35.0, 831.5536654978059, 571.1463015330955, -106.2935665906407, 1058.219652062282, 0.0, 0.04800000227987766, 0.9760000463575125, 0.0, 0.0, 0.0, 0.0, 0.0, 1.7564991742542715E9, 0.0, 2025-08-29 17:26:14.254
36.0, 827.5183134456165, 361.3154746191576, -230.15905312309042, 866.4862010339275, 0.0, 0.04800000227987766, 0.9760000463575125, 0.0, 0.0, 0.0, 0.0, 0.0, 1.7564991742550168E9, 0.0, 2025-08-29 17:26:14.255
36.0, 1045.6199291115627, 364.144708935637, -60.68922653095797, 1082.3008678769693, 0.0, 0.04800000227987766, 0.9760000463575125, 0.0, 0.0, 0.0, 0.0, 0.0, 1.7564991742550168E9, 0.0, 2025-08-29 17:26:14.255
37.0, 849.2620917879976, 194.03348950110376, -49.72757976083085, 1131.981698888354, 0.0, 0.04800000227987766, 0.9760000463575125, 0.0, 0.0, 0.0, 0.0, 0.0, 1.7564991742685895E9, 0.0, 2025-08-29 17:26:14.268
37.0, 824.412326532416, 182.8044398841448, -224.19391269376501, 1363.5506942947395, 0.0, 0.04800000227987766, 0.9760000463575125, 0.0, 0.0, 0.0, 0.0, 0.0, 1.7564991742685895E9, 0.0, 2025-08-29 17:26:14.268
38.0, 729.1084559615701, 50.1165293562226, -129.17053461959586, 1470.2836991301738, 0.0, 0.04800000227987766, 0.9760000463575125, 0.0, 0.0, 0.0, 0.0, 0.0, 1.7564991742842689E9, 0.0, 2025-08-29 17:26:14.284
38.0, 763.253742557019, 270.5125736449845, 3.868926504161209, 1682.3958650170825, 0.0, 0.04800000227987766, 0.9760000463575125, 0.0, 0.0, 0.0, 0.0, 0.0, 1.7564991742842689E9, 0.0, 2025-08-29 17:26:14.284
39.0, 995.1724186092615, 249.9749130383134, -169.70357033936307, 1451.4084240538068, 0.0, 0.04800000227987766, 0.9760000463575125, 0.0, 0.0, 0.0, 0.0, 0.0, 1.756499174284988E9, 0.0, 2025-08-29 17:26:14.284
39.0, 1203.5091554909013, 412.8868250581436, -187.64013052685186, 1402.632648831699, 0.0, 0.04800000227987766, 0.9760000463575125, 0.0, 0.0, 0.0, 0.0, 0.0, 1.756499174284988E9, 0.0, 2025-08-29 17:26:14.284
40.0, 1225.2174047837034, 437.45609781704843, -10.013582131359726, 1168.9057311508805, 0.0, 0.04800000227987766, 0.9760000463575125, 0.0, 0.0, 0.0, 0.0, 0.0, 1.7564991742986116E9, 0.0, 2025-08-29 17:26:14.298
40.0, 1332.7993669090793, 568.4460937650874, -124.67891477281228, 1042.0483246538788, 0.0, 0.04800000227987766, 0.9760000463575125, 0.0, 0.0, 0.0, 0.0, 0.0, 1.7564991742986116E9, 0.0, 2025-08-29 17:26:14.298
41.0, 1311.504376561381, 342.84784863796085, -235.10694076446816, 863.7934730658308, 0.0, 0.04800000227987766, 0.9760000463575125, 0.0, 0.0, 0.0, 0.0, 0.0, 1.7564991743142676E9, 0.0, 2025-08-29 17:26:14.314
41.0, 1525.2228294792585, 351.13733688974753, -69.67246622452512, 1083.7444692598656, 0.0, 0.04800000227987766, 0.9760000463575125, 0.0, 0.0, 0.0, 0.0, 0.0, 1.7564991743142676E9, 0.0, 2025-08-29 17:26:14.314
42.0, 1354.1579355560243, 205.38408586662263, -56.769811377394944, 1127.2993441438302, 0.0, 0.04800000227987766, 0.9760000463575125, 0.0, 0.0, 0.0, 0.0, 0.0, 1.7564991743149943E9, 0.0, 2025-08-29 17:26:14.314
42.0, 1305.9001364777796, 175.87440526625142, -239.64343941072002, 1365.0915330764838, 0.0, 0.04800000227987766, 0.9760000463575125, 0.0, 0.0, 0.0, 0.0, 0.0, 1.7564991743149943E9, 0.0, 2025-08-29 17:26:14.314
43.0, 1193.5610216087662, 22.452489383984357, -142.20782586513087, 1476.33485725848, 0.0, 0.04800000227987766, 0.9760000463575125, 0.0, 0.0, 0.0, 0.0, 0.0, 1.756499174344914E9, 0.0, 2025-08-29 17:26:14.344
43.0, 1262.1956655955873, -213.3986914716661, -25.5117275477387, 1665.90290621249, 0.0, 0.04800000227987766, 0.9760000463575125, 0.0, 0.0, 0.0, 0.0, 0.0, 1.756499174344914E9, 0.0, 2025-08-29 17:26:14.344
44.0, 1492.7717175637372, -238.51024972414598, -191.21173498453572, 1435.521329042036, 0.0, 0.04800000227987766, 0.9760000463575125, 0.0, 0.0, 0.0, 0.0, 0.0, 1.756499174345651E9, 0.0, 2025-08-29 17:26:14.345
44.0, 1687.4765191068873, -82.19178132619709, -200.99531326862052, 1390.354557277169, 0.0, 0.04800000227987766, 0.9760000463575125, 0.0, 0.0, 0.0, 0.0, 0.0, 1.756499174345651E9, 0.0, 2025-08-29 17:26:14.345
45.0, 1734.660966897849, -37.060538610909134, -21.611011893954128, 1159.0660543674603, 0.0, 0.04800000227987766, 0.9760000463575125, 0.0, 0.0, 0.0, 0.0, 0.0, 1.7564991743463929E9, 0.0, 2025-08-29 17:26:14.346
45.0, 1827.5900009968318, 86.20282402867451, -130.13916870811954, 1034.557305042632, 0.0, 0.04800000227987766, 0.9760000463575125, 0.0, 0.0, 0.0, 0.0, 0.0, 1.7564991743463929E9, 0.0, 2025-08-29 17:26:14.346
46.0, 1778.8366651744582, -155.73878390481696, -242.7288568741642, 853.6508643859997, 0.0, 0.04800000227987766, 0.9760000463575125, 0.0, 0.0, 0.0, 0.0, 0.0, 1.756499174358582E9, 0.0, 2025-08-29 17:26:14.358
46.0, 1543.85127115855, -126.66667159926146, -70.30824921699241, 1089.2720413943753, 0.0, 0.04800000227987766, 0.9760000463575125, 0.0, 0.0, 0.0, 0.0, 0.0, 1.756499174358582E9, 0.0, 2025-08-29 17:26:14.358
47.0, 1369.6934799719602, -274.3646705993451, -71.314282305073, 1120.6348424227908, 0.0, 0.04800000227987766, 0.9760000463575125, 0.0, 0.0, 0.0, 0.0, 0.0, 1.7564991743742387E9, 0.0, 2025-08-29 17:26:14.374
47.0, 1297.4255231781863, -321.4593607913703, -240.03238900611177, 1361.1982972226106, 0.0, 0.04800000227987766, 0.9760000463575125, 0.0, 0.0, 0.0, 0.0, 0.0, 1.7564991743742387E9, 0.0, 2025-08-29 17:26:14.374
48.0, 1223.8093324503861, -440.9454244757071, -126.29081165371463, 1486.357789139729, 0.0, 0.04800000227987766, 0.9760000463575125, 0.0, 0.0, 0.0, 0.0, 0.0, 1.7564991743749971E9, 0.0, 2025-08-29 17:26:14.374
48.0, 1290.5366274598055, -684.0968900448643, -29.360084602143615, 1644.00205207197, 0.0, 0.04800000227987766, 0.9760000463575125, 0.0, 0.0, 0.0, 0.0, 0.0, 1.7564991743749971E9, 0.0, 2025-08-29 17:26:14.374
49.0, 1488.9532797089778, -732.4930654214695, -200.9691339689307, 1422.3980200975202, 0.0, 0.04800000227987766, 0.9760000463575125, 0.0, 0.0, 0.0, 0.0, 0.0, 1.7564991743885796E9, 0.0, 2025-08-29 17:26:14.388
49.0, 1680.3781889909878, -576.5785062187351, -198.1829085019417, 1392.8565503475256, 0.0, 0.04800000227987766, 0.9760000463575125, 0.0, 0.0, 0.0, 0.0, 0.0, 1.7564991743885796E9, 0.0, 2025-08-29 17:26:14.388
50.0, 1744.092994586099, -529.0686871316284, -30.908403183799237, 1637.7152802464552, 0.0, 0.04800000227987766, 0.9760000463575125, 0.0, 0.0, 0.0, 0.0, 0.0, 1.7564991744042492E9, 0.0, 2025-08-29 17:26:14.404
50.0, 1840.1261456483044, -393.24300054088235, -132.88425527559593, 1527.0965193570592, 0.0, 0.04800000227987766, 0.9760000463575125, 0.0, 0.0, 0.0, 0.0, 0.0, 1.7564991744042492E9, 0.0, 2025-08-29 17:26:14.404
51.0, 1768.817473193165, -161.913358731661, -238.9889569184743, 1346.238697399851, 0.0, 0.04800000227987766, 0.9760000463575125, 0.0, 0.0, 0.0, 0.0, 0.0, 1.7564991744049916E9, 0.0, 2025-08-29 17:26:14.404
51.0, 1528.521421240177, -135.1712040985003, -75.73858395265415, 1569.3012903570198, 0.0, 0.04800000227987766, 0.9760000463575125, 0.0, 0.0, 0.0, 0.0, 0.0, 1.7564991744049916E9, 0.0, 2025-08-29 17:26:14.404
52.0, 1376.8778277868405, -274.73118079500273, -71.93136579776183, 1599.2466693022288, 0.0, 0.04800000227987766, 0.9760000463575125, 0.0, 0.0, 0.0, 0.0, 0.0, 1.756499174434966E9, 0.0, 2025-08-29 17:26:14.434
52.0, 1280.038728284184, -341.07513605896384, -239.29562871484086, 1839.9073615008965, 0.0, 0.04800000227987766, 0.9760000463575125, 0.0, 0.0, 0.0, 0.0, 0.0, 1.756499174434966E9, 0.0, 2025-08-29 17:26:14.434
53.0, 1186.2233378957026, -475.4385217670351, -140.33787588728592, 1960.2162031754851, 0.0, 0.04800000227987766, 0.9760000463575125, 0.0, 0.0, 0.0, 0.0, 0.0, 1.7564991744356785E9, 0.0, 2025-08-29 17:26:14.435
53.0, 1283.9955424373038, -690.2602451718412, -38.679915291722864, 2130.9314164528623, 0.0, 0.04800000227987766, 0.9760000463575125, 0.0, 0.0, 0.0, 0.0, 0.0, 1.7564991744356785E9, 0.0, 2025-08-29 17:26:14.435
54.0, 1465.238574089948, -752.2920957868919, -203.57958413800225, 1901.8550643669441, 0.0, 0.04800000227987766, 0.9760000463575125, 0.0, 0.0, 0.0, 0.0, 0.0, 1.7564991744364405E9, 0.0, 2025-08-29 17:26:14.436
54.0, 1665.8000589637086, -600.6073634340428, -209.7429392649792, 1873.525322202593, 0.0, 0.04800000227987766, 0.9760000463575125, 0.0, 0.0, 0.0, 0.0, 0.0, 1.7564991744364405E9, 0.0, 2025-08-29 17:26:14.436
55.0, 1754.0261688684113, -534.0838929722086, -49.966933357995, 2117.752009009011, 0.0, 0.04800000227987766, 0.9760000463575125, 0.0, 0.0, 0.0, 0.0, 0.0, 1.756499174448546E9, 0.0, 2025-08-29 17:26:14.448
55.0, 1840.8479463397525, -402.87698282673955, -152.13726024748757, 1995.6966340551153, 0.0, 0.04800000227987766, 0.9760000463575125, 0.0, 0.0, 0.0, 0.0, 0.0, 1.756499174448546E9, 0.0, 2025-08-29 17:26:14.448
56.0, 1746.2696163603105, -184.2143821674399, -251.7719349670224, 1825.3292314736173, 0.0, 0.04800000227987766, 0.9760000463575125, 0.0, 0.0, 0.0, 0.0, 0.0, 1.7564991744642508E9, 0.0, 2025-08-29 17:26:14.464
56.0, 1536.5397667451762, -133.52938801795244, -78.86140041565523, 2060.209908290766, 0.0, 0.04800000227987766, 0.9760000463575125, 0.0, 0.0, 0.0, 0.0, 0.0, 1.7564991744642508E9, 0.0, 2025-08-29 17:26:14.464
57.0, 1392.1328797060996, -258.6196917858906, -89.0227085952647, 2087.324182969518, 0.0, 0.04800000227987766, 0.9760000463575125, 0.0, 0.0, 0.0, 0.0, 0.0, 1.7564991744650104E9, 0.0, 2025-08-29 17:26:14.465
57.0, 1267.240790635813, -348.5773753700778, -255.83720621885732, 2326.339319187682, 0.0, 0.04800000227987766, 0.9760000463575125, 0.0, 0.0, 0.0, 0.0, 0.0, 1.7564991744650104E9, 0.0, 2025-08-29 17:26:14.465
58.0, 1181.4250462525524, -479.90770221408457, -162.55288162408397, 2443.2598115024157, 0.0, 0.04800000227987766, 0.9760000463575125, 0.0, 0.0, 0.0, 0.0, 0.0, 1.7564991744785588E9, 0.0, 2025-08-29 17:26:14.478
58.0, 1303.820752102416, -677.4136888240464, -66.20557896560058, 2599.2323391544633, 0.0, 0.04800000227987766, 0.9760000463575125, 0.0, 0.0, 0.0, 0.0, 0.0, 1.7564991744785588E9, 0.0, 2025-08-29 17:26:14.478
59.0, 1460.5674390452914, -756.2975286394358, -243.92188496002927, 2841.426390334964, 0.0, 0.04800000227987766, 0.9760000463575125, 0.0, 0.0, 0.0, 0.0, 0.0, 1.7564991744943013E9, 0.0, 2025-08-29 17:26:14.494
59.0, 1650.8292394410819, -596.5383522822522, -183.20460917940363, 2877.8417962035164, 0.0, 0.04800000227987766, 0.9760000463575125, 0.0, 0.0, 0.0, 0.0, 0.0, 1.7564991744943013E9, 0.0, 2025-08-29 17:26:14.494
60.0, 1761.591986478772, -522.1274328138679, -59.81408994132653, 3087.481888219714, 0.0, 0.04800000227987766, 0.9920000471174717, 0.0, 0.0, 0.0, 0.0, 0.0, 1.7564991744950185E9, 0.0, 2025-08-29 17:26:14.495
60.0, 1837.1080463840626, -404.9788066018373, -159.4674641606398, 2960.171953828074, 0.0, 0.04800000227987766, 0.9920000471174717, 0.0, 0.0, 0.0, 0.0, 0.0, 1.7564991744950185E9, 0.0, 2025-08-29 17:26:14.495
61.0, 1709.75697309291, -216.39622128615156, -272.42366252234206, 2784.894062604755, 0.0, 0.04800000227987766, 0.9920000471174717, 0.0, 0.0, 0.0, 0.0, 0.0, 1.7564991745085688E9, 0.0, 2025-08-29 17:26:14.508
61.0, 1528.786954137031, -138.60069235786796, -80.80614839261398, 3029.494739406742, 0.0, 0.04800000227987766, 0.9920000471174717, 0.0, 0.0, 0.0, 0.0, 0.0, 1.7564991745085688E9, 0.0, 2025-08-29 17:26:14.508
62.0, 1394.9901632722467, -260.67289686156437, -96.49876860668883, 3046.4364862060174, 0.0, 0.04800000227987766, 0.9920000471174717, 0.0, 0.0, 0.0, 0.0, 0.0, 1.7564991745242991E9, 0.0, 2025-08-29 17:26:14.524
62.0, 1233.7649461324327, -381.26784088276327, -274.2262943009846, 3274.9499833486043, 0.0, 0.04800000227987766, 0.9920000471174717, 0.0, 0.0, 0.0, 0.0, 0.0, 1.7564991745242991E9, 0.0, 2025-08-29 17:26:14.524
63.0, 1167.6248154160567, -490.98902578279376, -161.0980605413206, 3416.4191789724864, 0.0, 0.04800000227987766, 0.9920000471174717, 0.0, 0.0, 0.0, 0.0, 0.0, 1.7564991745250442E9, 0.0, 2025-08-29 17:26:14.525
63.0, 1312.1382896038704, -675.2707261494361, -65.6034550727345, 3580.735423425678, 0.0, 0.04800000227987766, 0.9920000471174717, 0.0, 0.0, 0.0, 0.0, 0.0, 1.7564991745250442E9, 0.0, 2025-08-29 17:26:14.525
64.0, 1461.3640377358533, -757.2437233282253, -239.62847981089726, 3346.217516904231, 0.0, 0.04800000227987766, 0.9920000471174717, 0.0, 0.0, 0.0, 0.0, 0.0, 1.7564991745385404E9, 0.0, 2025-08-29 17:26:14.538
64.0, 1610.8310094149783, -629.2886561942287, -230.18149252282456, 3327.8433884219266, 0.0, 0.04800000227987766, 0.9920000471174717, 0.0, 0.0, 0.0, 0.0, 0.0, 1.7564991745385404E9, 0.0, 2025-08-29 17:26:14.538
65.0, 1764.2435755473562, -518.7054243544117, -67.3836474516429, 3570.2263045501895, 0.0, 0.04800000227987766, 0.9920000471174717, 0.0, 0.0, 0.0, 0.0, 0.0, 1.756499174554266E9, 0.0, 2025-08-29 17:26:14.554
65.0, 1846.1511244769208, -391.2683333642781, -162.10409362940118, 3440.3246194892563, 0.0, 0.04800000227987766, 0.9920000471174717, 0.0, 0.0, 0.0, 0.0, 0.0, 1.756499174554266E9, 0.0, 2025-08-29 17:26:14.554
66.0, 1709.2633062987588, -209.47740636812523, -261.56299305101857, 3277.5903527173214, 0.0, 0.04800000227987766, 0.9920000471174717, 0.0, 0.0, 0.0, 0.0, 0.0, 1.756499174555052E9, 0.0, 2025-08-29 17:26:14.555
66.0, 1539.5541261094622, -123.85052693262696, -95.46655621891841, 3508.8994250767864, 0.0, 0.04800000227987766, 0.9920000471174717, 0.0, 0.0, 0.0, 0.0, 0.0, 1.756499174555052E9, 0.0, 2025-08-29 17:26:14.555
67.0, 1418.1289242981002, -235.26401656260714, -102.47886863583699, 3529.9812411270104, 0.0, 0.04800000227987766, 0.9920000471174717, 0.0, 0.0, 0.0, 0.0, 0.0, 1.7564991745685956E9, 0.0, 2025-08-29 17:26:14.568
67.0, 1231.4013293604366, -371.3533661002293, -271.4849476334639, 3286.300579714123, 0.0, 0.04800000227987766, 0.9920000471174717, 0.0, 0.0, 0.0, 0.0, 0.0, 1.7564991745685956E9, 0.0, 2025-08-29 17:26:14.568
68.0, 1164.8423298490234, -483.4942662715912, -164.66966499900445, 3413.9097061022185, 0.0, 0.04800000227987766, 0.9920000471174717, 0.0, 0.0, 0.0, 0.0, 0.0, 1.7564991745842624E9, 0.0, 2025-08-29 17:26:14.584
68.0, 1351.5942341363989, -635.0967208254151, -55.969472786877304, 3585.0512679745443, 0.0, 0.04800000227987766, 0.9920000471174717, 0.0, 0.0, 0.0, 0.0, 0.0, 1.7564991745842624E9, 0.0, 2025-08-29 17:26:14.584
69.0, 1460.271986948792, -751.2337040994316, -236.1279334523715, 3827.6492283502594, 0.0, 0.04800000227987766, 0.9920000471174717, 0.0, 0.0, 0.0, 0.0, 0.0, 1.756499174585014E9, 0.0, 2025-08-29 17:26:14.585
69.0, 1600.1573349414393, -644.1173595185392, -245.63475913973525, 3792.004241872579, 0.0, 0.04800000227987766, 0.9920000471174717, 0.0, 0.0, 0.0, 0.0, 0.0, 1.756499174585014E9, 0.0, 2025-08-29 17:26:14.585
70.0, 1779.1582965706475, -507.99435088131577, -73.41610608017072, 3555.4910987247713, 0.0, 0.04800000227987766, 0.9760000463575125, 0.0, 0.0, 0.0, 0.0, 0.0, 1.756499174598611E9, 0.0, 2025-08-29 17:26:14.598
70.0, 1842.119512324687, -403.0415384247899, -189.54373960429803, 3419.5419954354875, 0.0, 0.04800000227987766, 0.9760000463575125, 0.0, 0.0, 0.0, 0.0, 0.0, 1.756499174598611E9, 0.0, 2025-08-29 17:26:14.598
71.0, 1685.3466460821219, -237.70617123367265, -279.2639395412989, 3264.048174977768, 0.0, 0.04800000227987766, 0.9760000463575125, 0.0, 0.0, 0.0, 0.0, 0.0, 1.756499174614289E9, 0.0, 2025-08-29 17:26:14.614
71.0, 1525.6566578741185, -134.13151191081852, -104.38621761323884, 3499.7104908856563, 0.0, 0.04800000227987766, 0.9760000463575125, 0.0, 0.0, 0.0, 0.0, 0.0, 1.756499174614289E9, 0.0, 2025-08-29 17:26:14.614
72.0, 1436.054264785722, -236.90209274319932, -102.76310103246942, 3521.4206101284362, 0.0, 0.04800000227987766, 0.9760000463575125, 0.0, 0.0, 0.0, 0.0, 0.0, 1.75649917461504E9, 0.0, 2025-08-29 17:26:14.615
72.0, 1213.9285167674534, -395.46450111456215, -277.7006613598205, 3757.3353692833334, 0.0, 0.04800000227987766, 0.9760000463575125, 0.0, 0.0, 0.0, 0.0, 0.0, 1.75649917461504E9, 0.0, 2025-08-29 17:26:14.615
73.0, 1146.3747038678266, -498.0424770992249, -161.55432833591476, 3896.7775391312316, 0.0, 0.04800000227987766, 0.9760000463575125, 0.0, 0.0, 0.0, 0.0, 0.0, 1.7564991746285923E9, 0.0, 2025-08-29 17:26:14.628
73.0, 1351.0108097433113, -646.1780443941243, -70.70467861229554, 4058.180401518941, 0.0, 0.04800000227987766, 0.9760000463575125, 0.0, 0.0, 0.0, 0.0, 0.0, 1.7564991746285923E9, 0.0, 2025-08-29 17:26:14.628
74.0, 1445.7723948205821, -776.2985136024654, -252.85276605421677, 4298.1791314254515, 0.0, 0.04800000227987766, 0.9760000463575125, 0.0, 0.0, 0.0, 0.0, 0.0, 1.7564991746443074E9, 0.0, 2025-08-29 17:26:14.644
74.0, 1572.048246874474, -644.7568824109621, -254.18417043844238, 4259.729219981004, 0.0, 0.04800000227987766, 0.9760000463575125, 0.0, 0.0, 0.0, 0.0, 0.0, 1.7564991746443074E9, 0.0, 2025-08-29 17:26:14.644
75.0, 1797.835356949363, -498.21077259723097, -65.69695257162675, 4020.8973388606682, 0.0, 0.04800000227987766, 0.9760000463575125, 0.0, 0.0, 0.0, 0.0, 0.0, 1.7564991746450353E9, 0.0, 2025-08-29 17:26:14.645
75.0, 1866.5597585351206, -391.69094205927104, -139.010211403016, 3932.0709750130773, 0.0, 0.04800000227987766, 0.9760000463575125, 0.0, 0.0, 0.0, 0.0, 0.0, 1.7564991746450353E9, 0.0, 2025-08-29 17:26:14.645
76.0, 1675.8996587940492, -229.7214848282747, -246.00500923534855, 3763.681979508139, 0.0, 0.04800000227987766, 0.9760000463575125, 0.0, 0.0, 0.0, 0.0, 0.0, 1.7564991746586337E9, 0.0, 2025-08-29 17:26:14.658
76.0, 1548.301752105821, -117.27204291056842, -60.771504329983145, 3530.542226120364, 0.0, 0.04800000227987766, 0.9760000463575125, 0.0, 0.0, 0.0, 0.0, 0.0, 1.7564991746586337E9, 0.0, 2025-08-29 17:26:14.658
77.0, 1475.1997976219282, -209.4886260679923, -53.32536351820454, 3566.411606595386, 0.0, 0.04800000227987766, 0.9760000463575125, 0.0, 0.0, 0.0, 0.0, 0.0, 1.7564991746742911E9, 0.0, 2025-08-29 17:26:14.674
77.0, 1719.04127473291, -381.04718678537756, -234.34400117350742, 3806.1298440052196, 0.0, 0.04800000227987766, 0.9760000463575125, 0.0, 0.0, 0.0, 0.0, 0.0, 1.7564991746742911E9, 0.0, 2025-08-29 17:26:14.674
78.0, 1659.980774632655, -484.0365517651662, -117.86107715358958, 3949.6522447047755, 0.0, 0.04800000227987766, 0.9760000463575125, 0.0, 0.0, 0.0, 0.0, 0.0, 1.7564991746750145E9, 0.0, 2025-08-29 17:26:14.675
78.0, 1882.0747335013002, -612.6012225919403, -19.325933021027595, 4112.887658070773, 0.0, 0.04800000227987766, 0.9760000463575125, 0.0, 0.0, 0.0, 0.0, 0.0, 1.7564991746750145E9, 0.0, 2025-08-29 17:26:14.675
79.0, 1956.9998892135918, -756.2302104402333, -205.40465531637892, 4350.418054006528, 0.0, 0.04800000227987766, 0.9760000463575125, 0.0, 0.0, 0.0, 0.0, 0.0, 1.7564991746886072E9, 0.0, 2025-08-29 17:26:14.688
79.0, 2082.755895173643, -636.4318651095964, -166.1768446811475, 4371.922478751745, 0.0, 0.04800000227987766, 0.9760000463575125, 0.0, 0.0, 0.0, 0.0, 0.0, 1.7564991746886072E9, 0.0, 2025-08-29 17:26:14.688
80.0, 2321.808430391364, -464.6189911952242, -13.566487089265138, 4611.979177107569, 0.0, 0.04800000227987766, 0.9760000463575125, 0.0, 0.0, 0.0, 0.0, 0.0, 1.75649917470427E9, 0.0, 2025-08-29 17:26:14.704
80.0, 2369.192962829955, -375.86368544679135, -152.70572504075244, 4449.379546734039, 0.0, 0.04800000227987766, 0.9760000463575125, 0.0, 0.0, 0.0, 0.0, 0.0, 1.75649917470427E9, 0.0, 2025-08-29 17:26:14.704
81.0, 2152.271285600029, -238.0913809291087, -259.97353556985036, 4277.411466971505, 0.0, 0.04800000227987766, 0.9760000463575125, 0.0, 0.0, 0.0, 0.0, 0.0, 1.7564991747049913E9, 0.0, 2025-08-29 17:26:14.704
81.0, 2036.5550410710275, -118.78296249266714, -80.22272399952635, 4520.796676287893, 0.0, 0.04800000227987766, 0.9760000463575125, 0.0, 0.0, 0.0, 0.0, 0.0, 1.7564991747049913E9, 0.0, 2025-08-29 17:26:14.704
82.0, 1965.4464532635175, -205.22140021855012, -97.69927649246529, 4525.037722837646, 0.0, 0.04800000227987766, 0.9760000463575125, 0.0, 0.0, 0.0, 0.0, 0.0, 1.756499174718616E9, 0.0, 2025-08-29 17:26:14.718
82.0, 2184.1857218719088, -390.6325503718108, -262.49048824002966, 4282.770743608009, 0.0, 0.04800000227987766, 0.9760000463575125, 0.0, 0.0, 0.0, 0.0, 0.0, 1.756499174718616E9, 0.0, 2025-08-29 17:26:14.718
83.0, 2124.612855477724, -490.9366671834141, -140.4538127859123, 4440.141993843485, 0.0, 0.04800000227987766, 0.9760000463575125, 0.0, 0.0, 0.0, 0.0, 0.0, 1.756499174734265E9, 0.0, 2025-08-29 17:26:14.734
83.0, 1898.4255761075765, -591.6577828400768, -48.257799078244716, 4588.780577682424, 0.0, 0.04800000227987766, 0.9760000463575125, 0.0, 0.0, 0.0, 0.0, 0.0, 1.756499174734265E9, 0.0, 2025-08-29 17:26:14.734
84.0, 1946.371093539521, -755.0334424544126, -247.2840550201945, 4819.8596461946145, 0.0, 0.04800000227987766, 0.9760000463575125, 0.0, 0.0, 0.0, 0.0, 0.0, 1.756499174734988E9, 0.0, 2025-08-29 17:26:14.734
84.0, 2052.0774958371185, -649.5028154547326, -217.7164059705101, 4826.64008481428, 0.0, 0.04800000227987766, 0.9760000463575125, 0.0, 0.0, 0.0, 0.0, 0.0, 1.756499174734988E9, 0.0, 2025-08-29 17:26:14.734
85.0, 1851.5178809133358, -452.3633390404284, -43.39218923589215, 4581.9403006634675, 0.0, 0.04800000227987766, 0.9760000463575125, 0.0, 0.0, 0.0, 0.0, 0.0, 1.75649917474861E9, 0.0, 2025-08-29 17:26:14.748
85.0, 1885.4013745118864, -356.2404303792864, -181.1065253042616, 4421.453713764902, 0.0, 0.04800000227987766, 0.9760000463575125, 0.0, 0.0, 0.0, 0.0, 0.0, 1.75649917474861E9, 0.0, 2025-08-29 17:26:14.748
86.0, 1646.5377042419277, -243.40577876614407, -275.47168098622933, 4268.439446977805, 0.0, 0.04800000227987766, 0.9760000463575125, 0.0, 0.0, 0.0, 0.0, 0.0, 1.756499174764284E9, 0.0, 2025-08-29 17:26:14.764
