Sample Index, EXG Channel 0, EXG Channel 1, EXG Channel 2, EXG Channel 3, Accel Channel 0, Accel Channel 1, Accel Channel 2, Other, Other, Other, Other, Other, Timestamp, Marker Channel, Timestamp (Formatted)
89.0, -66.2897267146036, -132.38310868153349, 205.28871841775253, 243.37211966654286, 0.0, 0.0, 0.0, 0.0, 0.0, 0.0, 0.0, 0.0, 1.7563863874920352E9, 0.0, 2025-08-28 10:06:27.492
89.0, -166.37131947884336, -219.1226083538495, 341.9558824985288, 368.84950307989493, 0.0, 0.0, 0.0, 0.0, 0.0, 0.0, 0.0, 0.0, 1.7563863874920352E9, 0.0, 2025-08-28 10:06:27.492
0.0, -3308.926974446047, -552.4898106041364, -12379.613008777145, -11867.67867329251, 0.0, 0.0, 0.0, 0.0, 0.0, 0.0, 0.0, 0.0, 1.7563863875159328E9, 0.0, 2025-08-28 10:06:27.515
1.0, -3340.24863657495, -777.4317032890394, -12467.235124839004, -11942.558950205334, 0.0, 0.04800000227987766, 0.0, 0.0, 0.0, 0.0, 0.0, 0.0, 1.7563863875294704E9, 0.0, 2025-08-28 10:06:27.529
1.0, -3471.937993814703, -914.4765972653404, -12357.04832239449, -11813.268738787156, 0.0, 0.04800000227987766, 0.0, 0.0, 0.0, 0.0, 0.0, 0.0, 1.7563863875294704E9, 0.0, 2025-08-28 10:06:27.529
2.0, -3386.8926688223146, -1039.0863238889724, -12153.081658611074, -11635.806745989714, 0.0, 0.04800000227987766, 0.0, 0.0, 0.0, 0.0, 0.0, 0.0, 1.7563863875625136E9, 0.0, 2025-08-28 10:06:27.562
2.0, -3320.6665204069577, -845.1538116866723, -11930.146222252399, -11427.277404260356, 0.0, 0.04800000227987766, 0.0, 0.0, 0.0, 0.0, 0.0, 0.0, 1.7563863875625136E9, 0.0, 2025-08-28 10:06:27.562
3.0, -3425.540794964414, -778.1348044807091, -11767.986030123662, -11225.126461905427, 0.0, 0.04800000227987766, 0.0, 0.0, 0.0, 0.0, 0.0, 0.0, 1.7563863875633016E9, 0.0, 2025-08-28 10:06:27.563
3.0, -3380.4637807984836, -974.9133805492893, -11746.83315597428, -11206.797212222591, 0.0, 0.04800000227987766, 0.0, 0.0, 0.0, 0.0, 0.0, 0.0, 1.7563863875633016E9, 0.0, 2025-08-28 10:06:27.563
4.0, -3269.1493985173292, -939.1748965727165, -11840.298865716904, -11281.986030881759, 0.0, 0.04800000227987766, 0.0, 0.0, 0.0, 0.0, 0.0, 0.0, 1.7563863875639696E9, 0.0, 2025-08-28 10:06:27.563
4.0, -3337.7690829043277, -708.5726653048769, -11597.835541739594, -11050.974280568771, 0.0, 0.04800000227987766, 0.0, 0.0, 0.0, 0.0, 0.0, 0.0, 1.7563863875639696E9, 0.0, 2025-08-28 10:06:27.563
5.0, -3380.0673514031805, -926.4891559230164, -11784.329392930027, -11201.419236086309, 0.0, 0.04800000227987766, 0.0, 0.0, 0.0, 0.0, 0.0, 0.0, 1.7563863875749667E9, 0.0, 2025-08-28 10:06:27.574
5.0, -3273.6784173636697, -979.476058495231, -11870.644413957372, -11317.832971957047, 0.0, 0.04800000227987766, 0.0, 0.0, 0.0, 0.0, 0.0, 0.0, 1.7563863875749667E9, 0.0, 2025-08-28 10:06:27.574
6.0, -3259.5453354311176, -1195.7900019823574, -11891.595333509147, -11358.063075780403, 0.0, 0.04800000227987766, 0.0, 0.0, 0.0, 0.0, 0.0, 0.0, 1.75638638757566E9, 0.0, 2025-08-28 10:06:27.575
6.0, -3379.5587250092067, -1330.6620140844025, -11757.764883544762, -11204.033426155336, 0.0, 0.04800000227987766, 0.0, 0.0, 0.0, 0.0, 0.0, 0.0, 1.75638638757566E9, 0.0, 2025-08-28 10:06:27.575
7.0, -3278.4841888067313, -1445.8546726196073, -11991.046753130853, -10965.270733184181, 0.0, 0.04800000227987766, 0.0, 0.0, 0.0, 0.0, 0.0, 0.0, 1.75638638758923E9, 0.0, 2025-08-28 10:06:27.589
7.0, -3195.3948314911686, -1272.2148575768806, -12235.57824178366, -10741.763092132285, 0.0, 0.04800000227987766, 0.0, 0.0, 0.0, 0.0, 0.0, 0.0, 1.75638638758923E9, 0.0, 2025-08-28 10:06:27.589
8.0, -3311.7655585124157, -1222.0366198713891, -12082.689261645079, -10568.9554048297, 0.0, 0.04800000227987766, 0.0, 0.0, 0.0, 0.0, 0.0, 0.0, 1.756386387604931E9, 0.0, 2025-08-28 10:06:27.604
8.0, -3282.033353864681, -1369.2914407267235, -12079.457988083363, -10544.993865813594, 0.0, 0.04800000227987766, 0.0, 0.0, 0.0, 0.0, 0.0, 0.0, 1.756386387604931E9, 0.0, 2025-08-28 10:06:27.604
9.0, -3181.79655525228, -1315.2199671673588, -12171.667091440875, -10653.24340008106, 0.0, 0.04800000227987766, 0.0, 0.0, 0.0, 0.0, 0.0, 0.0, 1.756386387605693E9, 0.0, 2025-08-28 10:06:27.605
9.0, -3236.253238507081, -1131.8676319397055, -12416.00971514592, -10892.077151151374, 0.0, 0.04800000227987766, 0.0, 0.0, 0.0, 0.0, 0.0, 0.0, 1.756386387605693E9, 0.0, 2025-08-28 10:06:27.605
10.0, -3308.4856662512757, -1301.5917717288248, -12176.040904439054, -11118.501914168708, 0.0, 0.04800000227987766, 0.9760000463575125, 0.0, 0.0, 0.0, 0.0, 0.0, 1.7563863876192224E9, 0.0, 2025-08-28 10:06:27.619
10.0, -3206.7192485569976, -1410.9576661330648, -12283.721973913256, -11257.848716567736, 0.0, 0.04800000227987766, 0.9760000463575125, 0.0, 0.0, 0.0, 0.0, 0.0, 1.7563863876192224E9, 0.0, 2025-08-28 10:06:27.619
11.0, -3189.00708236685, -1584.662929425016, -12289.066290949937, -11270.111848522443, 0.0, 0.01600000075995922, 0.9760000463575125, 0.0, 0.0, 0.0, 0.0, 0.0, 1.7563863876349096E9, 0.0, 2025-08-28 10:06:27.634
11.0, -3307.2440194659866, -1720.7728484123945, -12152.98068131227, -11100.284861484542, 0.0, 0.01600000075995922, 0.9760000463575125, 0.0, 0.0, 0.0, 0.0, 0.0, 1.7563863876349096E9, 0.0, 2025-08-28 10:06:27.634
12.0, -3217.9389484240673, -1848.5091313989833, -11926.944867890328, -10875.262560950592, 0.0, 0.01600000075995922, 0.9760000463575125, 0.0, 0.0, 0.0, 0.0, 0.0, 1.7563863876356895E9, 0.0, 2025-08-28 10:06:27.635
12.0, -3153.586489886511, -1699.3694009659812, -12169.479249966796, -10655.599537053145, 0.0, 0.01600000075995922, 0.9760000463575125, 0.0, 0.0, 0.0, 0.0, 0.0, 1.7563863876356895E9, 0.0, 2025-08-28 10:06:27.635
13.0, -3274.2992407563142, -1630.7048377795145, -12057.553394042887, -10532.053811966907, 0.0, 0.01600000075995922, 0.9760000463575125, 0.0, 0.0, 0.0, 0.0, 0.0, 1.7563863876492183E9, 0.0, 2025-08-28 10:06:27.649
13.0, -3251.8635809221305, -1805.070193413645, -12054.699850376695, -10540.06841757195, 0.0, 0.01600000075995922, 0.9760000463575125, 0.0, 0.0, 0.0, 0.0, 0.0, 1.7563863876492183E9, 0.0, 2025-08-28 10:06:27.649
14.0, -3148.028998552356, -1795.3688929285854, -12134.537364680786, -10632.408417427912, 0.0, 0.01600000075995922, 0.9760000463575125, 0.0, 0.0, 0.0, 0.0, 0.0, 1.75638638766493E9, 0.0, 2025-08-28 10:06:27.664
14.0, -3202.481941907201, -2038.3258837000467, -12369.201127300505, -10844.8683940107, 0.0, 0.01600000075995922, 0.9760000463575125, 0.0, 0.0, 0.0, 0.0, 0.0, 1.75638638766493E9, 0.0, 2025-08-28 10:06:27.664
15.0, -3257.9035193505697, -2254.8997502340935, -12572.51704849163, -11030.625484909862, 0.0, 0.01600000075995922, 0.9760000463575125, 0.0, 0.0, 0.0, 0.0, 0.0, 1.7563863876656492E9, 0.0, 2025-08-28 10:06:27.665
15.0, -3157.2628115429543, -2360.6940401806496, -12697.730768958107, -11194.079682423268, 0.0, 0.01600000075995922, 0.9760000463575125, 0.0, 0.0, 0.0, 0.0, 0.0, 1.7563863876656492E9, 0.0, 2025-08-28 10:06:27.665
16.0, -3136.341811190825, -2536.220634751022, -12714.762273356318, -11190.264984468464, 0.0, 0.01600000075995922, 0.9760000463575125, 0.0, 0.0, 0.0, 0.0, 0.0, 1.7563863876792936E9, 0.0, 2025-08-28 10:06:27.679
16.0, -3257.6417263536714, -2653.013970467262, -12579.218949212227, -11011.394919337705, 0.0, 0.01600000075995922, 0.9760000463575125, 0.0, 0.0, 0.0, 0.0, 0.0, 1.7563863876792936E9, 0.0, 2025-08-28 10:06:27.679
17.0, -3152.0269516049884, -2777.8256516885012, -12790.237194362096, -10782.692557247356, 0.0, 0.01600000075995922, 0.9760000463575125, 0.0, 0.0, 0.0, 0.0, 0.0, 1.7563863876949584E9, 0.0, 2025-08-28 10:06:27.694
17.0, -3096.624073661398, -2657.281196316704, -12577.212492886, -10575.225347105414, 0.0, 0.01600000075995922, 0.9760000463575125, 0.0, 0.0, 0.0, 0.0, 0.0, 1.7563863876949584E9, 0.0, 2025-08-28 10:06:27.694
18.0, -3218.2643197202124, -2561.9960252456367, -12449.896948644426, -10415.38015304925, 0.0, 0.01600000075995922, 0.9760000463575125, 0.0, 0.0, 0.0, 0.0, 0.0, 1.756386387695693E9, 0.0, 2025-08-28 10:06:27.695
18.0, -3183.1391793363728, -2712.4933393625543, -12416.376225341577, -10384.29784451751, 0.0, 0.01600000075995922, 0.9760000463575125, 0.0, 0.0, 0.0, 0.0, 0.0, 1.756386387695693E9, 0.0, 2025-08-28 10:06:27.695
19.0, -3090.498117533978, -2707.418295122683, -12540.374478322454, -10532.983177105896, 0.0, 0.01600000075995922, 0.9760000463575125, 0.0, 0.0, 0.0, 0.0, 0.0, 1.756386387709309E9, 0.0, 2025-08-28 10:06:27.709
19.0, -3139.2439735564403, -2513.0594343254343, -12303.19937288249, -10760.30177621264, 0.0, 0.01600000075995922, 0.9760000463575125, 0.0, 0.0, 0.0, 0.0, 0.0, 1.756386387709309E9, 0.0, 2025-08-28 10:06:27.709
20.0, -3197.4929153663106, -2681.9682759242132, -12483.69068464404, -10956.58668548707, 0.0, 0.01600000075995922, 0.49600002355873585, 0.0, 0.0, 0.0, 0.0, 0.0, 1.7563863877249522E9, 0.0, 2025-08-28 10:06:27.724
20.0, -3089.282650048379, -2738.4706844547763, -12594.790022677742, -11098.383122357074, 0.0, 0.01600000075995922, 0.49600002355873585, 0.0, 0.0, 0.0, 0.0, 0.0, 1.7563863877249522E9, 0.0, 2025-08-28 10:06:27.724
21.0, -3077.872215283569, -2503.1187802432105, -12612.098279672675, -11074.769394036848, 0.0, 0.03200000151991844, 0.49600002355873585, 0.0, 0.0, 0.0, 0.0, 0.0, 1.7563863877256832E9, 0.0, 2025-08-28 10:06:27.725
21.0, -3201.8349392148666, -2645.1826199600473, -12496.088452997152, -10928.051248825155, 0.0, 0.03200000151991844, 0.49600002355873585, 0.0, 0.0, 0.0, 0.0, 0.0, 1.7563863877256832E9, 0.0, 2025-08-28 10:06:27.725
22.0, -3093.1571864024736, -2765.9701688289642, -12717.529799323529, -10701.6788444072, 0.0, 0.03200000151991844, 0.49600002355873585, 0.0, 0.0, 0.0, 0.0, 0.0, 1.756386387739309E9, 0.0, 2025-08-28 10:06:27.739
22.0, -3031.4301376338117, -2572.437825921923, -12486.486259860918, -10496.982900132425, 0.0, 0.03200000151991844, 0.49600002355873585, 0.0, 0.0, 0.0, 0.0, 0.0, 1.756386387739309E9, 0.0, 2025-08-28 10:06:27.739
23.0, -3168.7630039067008, -2515.984036090784, -12364.013886061963, -10352.822846490424, 0.0, 0.03200000151991844, 0.49600002355873585, 0.0, 0.0, 0.0, 0.0, 0.0, 1.7563863877549465E9, 0.0, 2025-08-28 10:06:27.754
23.0, -3128.488021283876, -2696.228514455259, -12360.864890299272, -10355.657690656837, 0.0, 0.03200000151991844, 0.49600002355873585, 0.0, 0.0, 0.0, 0.0, 0.0, 1.7563863877549465E9, 0.0, 2025-08-28 10:06:27.754
24.0, -3027.49202298047, -2687.484628358856, -12460.980142163113, -10466.151164897718, 0.0, 0.03200000151991844, 0.49600002355873585, 0.0, 0.0, 0.0, 0.0, 0.0, 1.7563863877556446E9, 0.0, 2025-08-28 10:06:27.755
24.0, -3088.269137160387, -2473.1958406977355, -12694.391038297676, -10662.525831771083, 0.0, 0.03200000151991844, 0.49600002355873585, 0.0, 0.0, 0.0, 0.0, 0.0, 1.7563863877556446E9, 0.0, 2025-08-28 10:06:27.755
25.0, -3152.322403701488, -2631.15799512621, -12895.216186118312, -10877.218528627418, 0.0, 0.03200000151991844, 0.49600002355873585, 0.0, 0.0, 0.0, 0.0, 0.0, 1.756386387769272E9, 0.0, 2025-08-28 10:06:27.769
25.0, -3045.357525068801, -2752.4354708893225, -13021.802449868526, -11017.522745415103, 0.0, 0.03200000151991844, 0.49600002355873585, 0.0, 0.0, 0.0, 0.0, 0.0, 1.756386387769272E9, 0.0, 2025-08-28 10:06:27.769
26.0, -3041.976655508857, -2931.1634198217653, -13061.224735301454, -11062.248208985198, 0.0, 0.03200000151991844, 0.49600002355873585, 0.0, 0.0, 0.0, 0.0, 0.0, 1.75638638778494E9, 0.0, 2025-08-28 10:06:27.784
26.0, -3170.206605289597, -3048.7907532281242, -12931.429637389258, -10899.422314664349, 0.0, 0.03200000151991844, 0.49600002355873585, 0.0, 0.0, 0.0, 0.0, 0.0, 1.75638638778494E9, 0.0, 2025-08-28 10:06:27.784
27.0, -3085.542750092689, -3212.3141388907097, -12690.224789747037, -10693.993349998258, 0.0, 0.03200000151991844, 0.49600002355873585, 0.0, 0.0, 0.0, 0.0, 0.0, 1.7563863877856505E9, 0.0, 2025-08-28 10:06:27.785
27.0, -3021.751276548486, -3045.776393863838, -12458.46692939289, -10472.531434222125, 0.0, 0.03200000151991844, 0.49600002355873585, 0.0, 0.0, 0.0, 0.0, 0.0, 1.7563863877856505E9, 0.0, 2025-08-28 10:06:27.785
28.0, -3152.41590120038, -3018.740657084156, -12382.877941438463, -10354.872311666142, 0.0, 0.03200000151991844, 0.49600002355873585, 0.0, 0.0, 0.0, 0.0, 0.0, 1.7563863877992728E9, 0.0, 2025-08-28 10:06:27.799
28.0, -3115.3721921392716, -3142.841757313814, -12377.084836407099, -10347.803900749888, 0.0, 0.03200000151991844, 0.49600002355873585, 0.0, 0.0, 0.0, 0.0, 0.0, 1.7563863877992728E9, 0.0, 2025-08-28 10:06:27.799
29.0, -3029.7097836541943, -3173.8567476463504, -12519.554455269128, -10487.655589642935, 0.0, 0.03200000151991844, 0.49600002355873585, 0.0, 0.0, 0.0, 0.0, 0.0, 1.756386387814902E9, 0.0, 2025-08-28 10:06:27.814
29.0, -3095.3038889770396, -3417.210167813115, -12290.973639927339, -10724.342638138682, 0.0, 0.03200000151991844, 0.49600002355873585, 0.0, 0.0, 0.0, 0.0, 0.0, 1.756386387814902E9, 0.0, 2025-08-28 10:06:27.814
30.0, -3159.2038196199574, -3585.307451121509, -12495.12729870854, -10948.22052928619, 0.0, 0.03200000151991844, 0.7360000349581242, 0.0, 0.0, 0.0, 0.0, 0.0, 1.7563863878156648E9, 0.0, 2025-08-28 10:06:27.815
30.0, -3070.130622375291, -3686.314669124782, -12661.53601718694, -11128.762329697143, 0.0, 0.03200000151991844, 0.7360000349581242, 0.0, 0.0, 0.0, 0.0, 0.0, 1.7563863878156648E9, 0.0, 2025-08-28 10:06:27.815
31.0, -3055.387936749961, -3901.910551820416, -12686.402611992322, -11132.034742158372, 0.0, 0.04800000227987766, 0.7360000349581242, 0.0, 0.0, 0.0, 0.0, 0.0, 1.7563863878292649E9, 0.0, 2025-08-28 10:06:27.829
31.0, -3199.022534448188, -4013.3446109001525, -12561.813454818446, -11002.587454942055, 0.0, 0.04800000227987766, 0.7360000349581242, 0.0, 0.0, 0.0, 0.0, 0.0, 1.7563863878292649E9, 0.0, 2025-08-28 10:06:27.829
32.0, -3097.095301055815, -4156.107811908703, -12318.611500599887, -10782.804754246026, 0.0, 0.04800000227987766, 0.7360000349581242, 0.0, 0.0, 0.0, 0.0, 0.0, 1.7563863878448994E9, 0.0, 2025-08-28 10:06:27.844
32.0, -3032.451130321715, -4012.2600399130024, -12100.51923468383, -10573.729387123138, 0.0, 0.04800000227987766, 0.7360000349581242, 0.0, 0.0, 0.0, 0.0, 0.0, 1.7563863878448994E9, 0.0, 2025-08-28 10:06:27.844
33.0, -3152.258825402241, -3934.2868657368235, -11976.711716600694, -10430.968056064565, 0.0, 0.04800000227987766, 0.7360000349581242, 0.0, 0.0, 0.0, 0.0, 0.0, 1.75638638784561E9, 0.0, 2025-08-28 10:06:27.845
33.0, -3128.1102913883515, -4095.8168847230263, -11988.23808826413, -10421.21065708017, 0.0, 0.04800000227987766, 0.7360000349581242, 0.0, 0.0, 0.0, 0.0, 0.0, 1.75638638784561E9, 0.0, 2025-08-28 10:06:27.845
34.0, -3032.380072222557, -4119.0678427475505, -12074.889700287487, -10544.947117064148, 0.0, 0.04800000227987766, 0.7360000349581242, 0.0, 0.0, 0.0, 0.0, 0.0, 1.7563863878592384E9, 0.0, 2025-08-28 10:06:27.859
34.0, -3078.7548316731118, -3875.6975930309854, -12301.725852299947, -10774.247863147408, 0.0, 0.04800000227987766, 0.7360000349581242, 0.0, 0.0, 0.0, 0.0, 0.0, 1.7563863878592384E9, 0.0, 2025-08-28 10:06:27.859
35.0, -3149.3940620361827, -4072.939916694071, -12517.2188877468, -10964.156242997386, 0.0, 0.04800000227987766, 0.7360000349581242, 0.0, 0.0, 0.0, 0.0, 0.0, 1.7563863878749132E9, 0.0, 2025-08-28 10:06:27.874
35.0, -3025.7043508016504, -4196.943779524881, -12630.09841815941, -11073.494088151958, 0.0, 0.04800000227987766, 0.7360000349581242, 0.0, 0.0, 0.0, 0.0, 0.0, 1.7563863878749132E9, 0.0, 2025-08-28 10:06:27.874
36.0, -3021.4707840518095, -4385.335629942827, -12655.90372785367, -11107.03725085454, 0.0, 0.04800000227987766, 0.7360000349581242, 0.0, 0.0, 0.0, 0.0, 0.0, 1.7563863878756313E9, 0.0, 2025-08-28 10:06:27.875
36.0, -3153.646328285802, -4507.177830599248, -12516.915955850389, -10965.491387281567, 0.0, 0.04800000227987766, 0.7360000349581242, 0.0, 0.0, 0.0, 0.0, 0.0, 1.7563863878756313E9, 0.0, 2025-08-28 10:06:27.875
37.0, -3069.6294757812284, -4659.245902697556, -12294.971592979971, -10758.51410403382, 0.0, 0.04800000227987766, 0.7360000349581242, 0.0, 0.0, 0.0, 0.0, 0.0, 1.7563863878892572E9, 0.0, 2025-08-28 10:06:27.889
37.0, -2983.88104959717, -4462.459846829064, -12050.483113176655, -10985.075373399537, 0.0, 0.04800000227987766, 0.7360000349581242, 0.0, 0.0, 0.0, 0.0, 0.0, 1.7563863878892572E9, 0.0, 2025-08-28 10:06:27.889
38.0, -3104.9303914629854, -4430.47996230796, -11913.395210350864, -10831.63662796747, 0.0, 0.04800000227987766, 0.7360000349581242, 0.0, 0.0, 0.0, 0.0, 0.0, 1.7563863879049037E9, 0.0, 2025-08-28 10:06:27.904
38.0, -3085.954139087815, -4586.358992461115, -11887.5225824574, -10838.641460584477, 0.0, 0.04800000227987766, 0.7360000349581242, 0.0, 0.0, 0.0, 0.0, 0.0, 1.7563863879049037E9, 0.0, 2025-08-28 10:06:27.904
39.0, -2988.92243473744, -4586.845179455355, -12022.706876205746, -10960.313495792914, 0.0, 0.04800000227987766, 0.7360000349581242, 0.0, 0.0, 0.0, 0.0, 0.0, 1.7563863879056616E9, 0.0, 2025-08-28 10:06:27.905
39.0, -3046.367298056837, -4358.595345259644, -12255.220196350943, -11182.246638963465, 0.0, 0.04800000227987766, 0.7360000349581242, 0.0, 0.0, 0.0, 0.0, 0.0, 1.7563863879056616E9, 0.0, 2025-08-28 10:06:27.905
40.0, -3111.5275749848224, -4555.890027522109, -12455.087929782923, -11399.37775059091, 0.0, 0.04800000227987766, 0.8640000410377979, 0.0, 0.0, 0.0, 0.0, 0.0, 1.7563863879192762E9, 0.0, 2025-08-28 10:06:27.919
40.0, -3001.1257282928564, -4629.225725753233, -12554.324305157177, -11547.8686083816, 0.0, 0.04800000227987766, 0.8640000410377979, 0.0, 0.0, 0.0, 0.0, 0.0, 1.7563863879192762E9, 0.0, 2025-08-28 10:06:27.919
41.0, -3002.300056878943, -4833.830042479094, -12585.148560591973, -11557.697065465152, 0.0, 0.04800000227987766, 0.8640000410377979, 0.0, 0.0, 0.0, 0.0, 0.0, 1.7563863879349008E9, 0.0, 2025-08-28 10:06:27.934
41.0, -3127.0032810014673, -4964.2852327334695, -12454.964513084386, -11400.95598837221, 0.0, 0.04800000227987766, 0.8640000410377979, 0.0, 0.0, 0.0, 0.0, 0.0, 1.7563863879349008E9, 0.0, 2025-08-28 10:06:27.934
42.0, -3041.7298221117817, -5110.492881601211, -12254.879865454976, -11200.534749746788, 0.0, 0.04800000227987766, 0.8640000410377979, 0.0, 0.0, 0.0, 0.0, 0.0, 1.7563863879356472E9, 0.0, 2025-08-28 10:06:27.935
42.0, -2984.400895691011, -4924.892866500188, -12061.901027741376, -11007.436235234607, 0.0, 0.04800000227987766, 0.8640000410377979, 0.0, 0.0, 0.0, 0.0, 0.0, 1.7563863879356472E9, 0.0, 2025-08-28 10:06:27.935
43.0, -3108.9919228148647, -4881.162216318306, -11944.57475628145, -10864.92173757311, 0.0, 0.04800000227987766, 0.8640000410377979, 0.0, 0.0, 0.0, 0.0, 0.0, 1.7563863879492912E9, 0.0, 2025-08-28 10:06:27.949
43.0, -3082.0758628337644, -5052.468333788682, -11932.464960224926, -10865.258328569122, 0.0, 0.04800000227987766, 0.8640000410377979, 0.0, 0.0, 0.0, 0.0, 0.0, 1.7563863879492912E9, 0.0, 2025-08-28 10:06:27.949
44.0, -2996.9146009427495, -5067.599969009403, -12066.949892681558, -11009.02195281582, 0.0, 0.04800000227987766, 0.8640000410377979, 0.0, 0.0, 0.0, 0.0, 0.0, 1.756386387964932E9, 0.0, 2025-08-28 10:06:27.964
44.0, -3054.161249564495, -4829.1701271343045, -11823.588992714882, -11234.466862044763, 0.0, 0.04800000227987766, 0.8640000410377979, 0.0, 0.0, 0.0, 0.0, 0.0, 1.756386387964932E9, 0.0, 2025-08-28 10:06:27.964
45.0, -3108.098086725455, -5014.9758367328905, -12009.910808507353, -11429.760697830934, 0.0, 0.04800000227987766, 0.8640000410377979, 0.0, 0.0, 0.0, 0.0, 0.0, 1.7563863879656577E9, 0.0, 2025-08-28 10:06:27.965
45.0, -3007.9996644114144, -5129.693527973723, -12129.918588235509, -11559.907346338965, 0.0, 0.04800000227987766, 0.8640000410377979, 0.0, 0.0, 0.0, 0.0, 0.0, 1.7563863879656577E9, 0.0, 2025-08-28 10:06:27.965
46.0, -3005.5014112410136, -5333.460107109509, -12170.245929457713, -11571.6955109993, 0.0, 0.04800000227987766, 0.8640000410377979, 0.0, 0.0, 0.0, 0.0, 0.0, 1.756386387979221E9, 0.0, 2025-08-28 10:06:27.979
46.0, -3123.618671541568, -5476.4738814150915, -12031.06742255669, -11426.9782122639, 0.0, 0.04800000227987766, 0.8640000410377979, 0.0, 0.0, 0.0, 0.0, 0.0, 1.756386387979221E9, 0.0, 2025-08-28 10:06:27.979
47.0, -3035.21491638897, -5597.396066682413, -11809.885999277234, -11201.593141434249, 0.0, 0.04800000227987766, 0.8640000410377979, 0.0, 0.0, 0.0, 0.0, 0.0, 1.7563863879949036E9, 0.0, 2025-08-28 10:06:27.994
47.0, -2971.715155041311, -5407.192234735936, -11581.43047058396, -11021.995665762108, 0.0, 0.04800000227987766, 0.8640000410377979, 0.0, 0.0, 0.0, 0.0, 0.0, 1.7563863879949036E9, 0.0, 2025-08-28 10:06:27.994
48.0, -3093.0636889035814, -5364.733150538988, -11444.660459254403, -10869.585392817855, 0.0, 0.04800000227987766, 0.8640000410377979, 0.0, 0.0, 0.0, 0.0, 0.0, 1.756386387995662E9, 0.0, 2025-08-28 10:06:27.995
48.0, -3074.4913457236253, -5543.212396124378, -11461.39277165616, -10878.650910310447, 0.0, 0.04800000227987766, 0.8640000410377979, 0.0, 0.0, 0.0, 0.0, 0.0, 1.756386387995662E9, 0.0, 2025-08-28 10:06:27.995
49.0, -2991.7161400043406, -5530.5042160749435, -11589.6395509867, -11003.60657767998, 0.0, 0.04800000227987766, 0.8640000410377979, 0.0, 0.0, 0.0, 0.0, 0.0, 1.7563863880092578E9, 0.0, 2025-08-28 10:06:28.009
49.0, -3049.7182484171353, -5310.171750085428, -11822.425883828662, -11223.542614274193, 0.0, 0.04800000227987766, 0.8640000410377979, 0.0, 0.0, 0.0, 0.0, 0.0, 1.7563863880092578E9, 0.0, 2025-08-28 10:06:28.009
50.0, -3093.9313456933014, -5505.11777517572, -12017.125075521879, -11425.665507379454, 0.0, 0.04800000227987766, 0.9280000440776348, 0.0, 0.0, 0.0, 0.0, 0.0, 1.7563863880248845E9, 0.0, 2025-08-28 10:06:28.024
50.0, -2982.5758245126344, -5593.708525326103, -12117.909769477788, -11545.804183606058, 0.0, 0.04800000227987766, 0.9280000440776348, 0.0, 0.0, 0.0, 0.0, 0.0, 1.7563863880248845E9, 0.0, 2025-08-28 10:06:28.024
51.0, -2982.9872135077603, -5818.721476110164, -12123.82629120769, -11533.324137453921, 0.0, 0.04800000227987766, 0.9280000440776348, 0.0, 0.0, 0.0, 0.0, 0.0, 1.7563863880256536E9, 0.0, 2025-08-28 10:06:28.025
51.0, -3115.2188562410884, -5933.899175045546, -12008.179234827869, -11419.363775954116, 0.0, 0.04800000227987766, 0.9280000440776348, 0.0, 0.0, 0.0, 0.0, 0.0, 1.7563863880256536E9, 0.0, 2025-08-28 10:06:28.025
52.0, -3028.714970265981, -6077.294419146609, -11784.32752298005, -11181.794111068826, 0.0, 0.04800000227987766, 0.9280000440776348, 0.0, 0.0, 0.0, 0.0, 0.0, 1.7563863880392256E9, 0.0, 2025-08-28 10:06:28.039
52.0, -2960.353338975925, -5918.049479033332, -11560.584268230945, -10946.554403855931, 0.0, 0.04800000227987766, 0.9280000440776348, 0.0, 0.0, 0.0, 0.0, 0.0, 1.7563863880392256E9, 0.0, 2025-08-28 10:06:28.039
53.0, -3079.8319228603505, -5866.659513742197, -11450.049655090552, -10829.759198189713, 0.0, 0.04800000227987766, 0.9280000440776348, 0.0, 0.0, 0.0, 0.0, 0.0, 1.7563863880549076E9, 0.0, 2025-08-28 10:06:28.054
53.0, -3043.6745700887404, -6021.356735509355, -11418.267985267099, -10803.714534898289, 0.0, 0.04800000227987766, 0.9280000440776348, 0.0, 0.0, 0.0, 0.0, 0.0, 1.7563863880549076E9, 0.0, 2025-08-28 10:06:28.054
54.0, -2963.124604843091, -6022.796596992295, -11517.631517239846, -10947.811010241043, 0.0, 0.04800000227987766, 0.9280000440776348, 0.0, 0.0, 0.0, 0.0, 0.0, 1.7563863880556407E9, 0.0, 2025-08-28 10:06:28.055
54.0, -3029.0328617622145, -5798.095927854534, -11272.886854289565, -11182.448593561072, 0.0, 0.04800000227987766, 0.9280000440776348, 0.0, 0.0, 0.0, 0.0, 0.0, 1.7563863880556407E9, 0.0, 2025-08-28 10:06:28.055
55.0, -3090.8571479297243, -6005.323784399312, -11496.431894341018, -11402.051779059228, 0.0, 0.04800000227987766, 0.9280000440776348, 0.0, 0.0, 0.0, 0.0, 0.0, 1.7563863880692492E9, 0.0, 2025-08-28 10:06:28.069
55.0, -2975.503673696425, -6045.643645821605, -11623.339789487422, -11530.134002791718, 0.0, 0.04800000227987766, 0.9280000440776348, 0.0, 0.0, 0.0, 0.0, 0.0, 1.7563863880692492E9, 0.0, 2025-08-28 10:06:28.069
56.0, -2968.7045355769806, -6282.6018370641395, -11622.472132697701, -11516.932155948132, 0.0, 0.04800000227987766, 0.9280000440776348, 0.0, 0.0, 0.0, 0.0, 0.0, 1.7563863880849607E9, 0.0, 2025-08-28 10:06:28.084
56.0, -3099.6234734258614, -6397.764576399699, -11494.719020161312, -11374.548554785084, 0.0, 0.04800000227987766, 0.9280000440776348, 0.0, 0.0, 0.0, 0.0, 0.0, 1.7563863880849607E9, 0.0, 2025-08-28 10:06:28.084
57.0, -3003.3696682662703, -6546.474218337797, -11250.335257556755, -11159.986754427198, 0.0, 0.04800000227987766, 0.9280000440776348, 0.0, 0.0, 0.0, 0.0, 0.0, 1.7563863880856345E9, 0.0, 2025-08-28 10:06:28.085
57.0, -2935.060395575594, -6367.471386758611, -11493.026715431362, -11392.950732517056, 0.0, 0.04800000227987766, 0.9280000440776348, 0.0, 0.0, 0.0, 0.0, 0.0, 1.7563863880856345E9, 0.0, 2025-08-28 10:06:28.085
58.0, -3057.3139852271415, -6312.072248714976, -11397.298366215546, -11261.52503822418, 0.0, 0.04800000227987766, 0.9280000440776348, 0.0, 0.0, 0.0, 0.0, 0.0, 1.7563863880992477E9, 0.0, 2025-08-28 10:06:28.099
58.0, -3035.469229585957, -6497.406730919145, -11366.425492081326, -11282.91352607077, 0.0, 0.04800000227987766, 0.9280000440776348, 0.0, 0.0, 0.0, 0.0, 0.0, 1.7563863880992477E9, 0.0, 2025-08-28 10:06:28.099
59.0, -2936.1300069629215, -6514.228800919838, -11450.148762439378, -11368.102837211452, 0.0, 0.04800000227987766, 0.9280000440776348, 0.0, 0.0, 0.0, 0.0, 0.0, 1.756386388114924E9, 0.0, 2025-08-28 10:06:28.114
59.0, -2997.6962400334887, -6742.136434269603, -11687.830624323338, -11600.447861858644, 0.0, 0.04800000227987766, 0.9280000440776348, 0.0, 0.0, 0.0, 0.0, 0.0, 1.756386388114924E9, 0.0, 2025-08-28 10:06:28.114
60.0, -3059.3522307029925, -6939.292740233708, -11900.96378289815, -11806.867900012992, 0.0, 0.04800000227987766, 0.944000044837594, 0.0, 0.0, 0.0, 0.0, 0.0, 1.7563863881156428E9, 0.0, 2025-08-28 10:06:28.115
60.0, -2950.6408187909983, -7029.817018661182, -12012.747522623744, -11927.9939098279, 0.0, 0.04800000227987766, 0.944000044837594, 0.0, 0.0, 0.0, 0.0, 0.0, 1.7563863881156428E9, 0.0, 2025-08-28 10:06:28.115
61.0, -2933.6803724919446, -7265.683159116656, -12023.574532995466, -11930.742736295331, 0.0, 0.06400000303983688, 0.944000044837594, 0.0, 0.0, 0.0, 0.0, 0.0, 1.7563863881292531E9, 0.0, 2025-08-28 10:06:28.129
61.0, -3073.4740929356776, -7396.183228170499, -11897.728769436479, -11766.701374488883, 0.0, 0.06400000303983688, 0.944000044837594, 0.0, 0.0, 0.0, 0.0, 0.0, 1.7563863881292531E9, 0.0, 2025-08-28 10:06:28.129
62.0, -2968.640957277734, -7510.29505561851, -12141.444959898945, -11544.988885415718, 0.0, 0.06400000303983688, 0.944000044837594, 0.0, 0.0, 0.0, 0.0, 0.0, 1.7563863881449287E9, 0.0, 2025-08-28 10:06:28.144
62.0, -2921.6565941344015, -7359.610746503808, -11922.204544696491, -11333.931371316314, 0.0, 0.06400000303983688, 0.944000044837594, 0.0, 0.0, 0.0, 0.0, 0.0, 1.7563863881449287E9, 0.0, 2025-08-28 10:06:28.144
63.0, -3037.107305766549, -7306.182535736822, -11803.045722258277, -11190.635234564077, 0.0, 0.06400000303983688, 0.944000044837594, 0.0, 0.0, 0.0, 0.0, 0.0, 1.7563863881456306E9, 0.0, 2025-08-28 10:06:28.145
63.0, -3014.83246163046, -7500.578795533627, -11792.551562982611, -11195.441006007139, 0.0, 0.06400000303983688, 0.944000044837594, 0.0, 0.0, 0.0, 0.0, 0.0, 1.7563863881456306E9, 0.0, 2025-08-28 10:06:28.145
64.0, -2928.1565402573906, -7517.763635830022, -11895.707353510428, -11311.675226680003, 0.0, 0.06400000303983688, 0.944000044837594, 0.0, 0.0, 0.0, 0.0, 0.0, 1.7563863881592653E9, 0.0, 2025-08-28 10:06:28.159
64.0, -2979.830737945158, -7735.128491204698, -12132.959126899485, -11531.753379472531, 0.0, 0.06400000303983688, 0.944000044837594, 0.0, 0.0, 0.0, 0.0, 0.0, 1.7563863881592653E9, 0.0, 2025-08-28 10:06:28.159
65.0, -3052.209021787625, -7939.413046484347, -11908.772694005631, -11776.735526069999, 0.0, 0.06400000303983688, 0.944000044837594, 0.0, 0.0, 0.0, 0.0, 0.0, 1.7563863881749167E9, 0.0, 2025-08-28 10:06:28.174
65.0, -2945.4797568521462, -8011.675393428188, -12022.056133613456, -11915.001497381832, 0.0, 0.06400000303983688, 0.944000044837594, 0.0, 0.0, 0.0, 0.0, 0.0, 1.7563863881749167E9, 0.0, 2025-08-28 10:06:28.174
66.0, -2924.439079701435, -8229.002849803306, -12029.509754225146, -11909.832955643069, 0.0, 0.06400000303983688, 0.944000044837594, 0.0, 0.0, 0.0, 0.0, 0.0, 1.7563863881756208E9, 0.0, 2025-08-28 10:06:28.175
66.0, -3068.2419728976674, -8335.51894044131, -11923.23862703424, -11814.87876571808, 0.0, 0.06400000303983688, 0.944000044837594, 0.0, 0.0, 0.0, 0.0, 0.0, 1.7563863881756208E9, 0.0, 2025-08-28 10:06:28.175
67.0, -2981.001326631289, -8502.056685468182, -11696.56703061983, -11598.93320237659, 0.0, 0.06400000303983688, 0.944000044837594, 0.0, 0.0, 0.0, 0.0, 0.0, 1.7563863881892533E9, 0.0, 2025-08-28 10:06:28.189
67.0, -2911.3419500566088, -8331.722941986285, -11459.1020829333, -11838.370947289746, 0.0, 0.06400000303983688, 0.944000044837594, 0.0, 0.0, 0.0, 0.0, 0.0, 1.7563863881892533E9, 0.0, 2025-08-28 10:06:28.189
68.0, -3039.79629383469, -8261.6334769167, -11359.813348959666, -11737.275841637515, 0.0, 0.06400000303983688, 0.944000044837594, 0.0, 0.0, 0.0, 0.0, 0.0, 1.7563863882049272E9, 0.0, 2025-08-28 10:06:28.204
68.0, -3016.6911919084378, -8422.019086516462, -11351.293856860604, -11724.313348391093, 0.0, 0.06400000303983688, 0.944000044837594, 0.0, 0.0, 0.0, 0.0, 0.0, 1.7563863882049272E9, 0.0, 2025-08-28 10:06:28.204
69.0, -2913.881342126522, -8448.228305405937, -11448.974433853291, -11814.222413275857, 0.0, 0.06400000303983688, 0.944000044837594, 0.0, 0.0, 0.0, 0.0, 0.0, 1.7563863882056513E9, 0.0, 2025-08-28 10:06:28.205
69.0, -2983.2415267047472, -8693.100124954712, -11219.772795118857, -12056.508092005271, 0.0, 0.06400000303983688, 0.944000044837594, 0.0, 0.0, 0.0, 0.0, 0.0, 1.7563863882056513E9, 0.0, 2025-08-28 10:06:28.205
70.0, -3058.5593719123863, -8907.983556708787, -11450.591940584127, -12300.416887315456, 0.0, 0.06400000303983688, 0.9600000455975533, 0.0, 0.0, 0.0, 0.0, 0.0, 1.756386388219247E9, 0.0, 2025-08-28 10:06:28.219
70.0, -2935.591461369302, -8984.169058706146, -11555.804676087573, -12422.926660113968, 0.0, 0.06400000303983688, 0.9600000455975533, 0.0, 0.0, 0.0, 0.0, 0.0, 1.756386388219247E9, 0.0, 2025-08-28 10:06:28.219
71.0, -2915.0594106125645, -8745.724257231224, -11533.743006248958, -12402.566644755192, 0.0, 0.04800000227987766, 0.9600000455975533, 0.0, 0.0, 0.0, 0.0, 0.0, 1.756386388234974E9, 0.0, 2025-08-28 10:06:28.234
71.0, -3065.4557474306785, -8868.217200479936, -11443.44873166876, -12299.526791126002, 0.0, 0.04800000227987766, 0.9600000455975533, 0.0, 0.0, 0.0, 0.0, 0.0, 1.756386388234974E9, 0.0, 2025-08-28 10:06:28.234
72.0, -2965.405943816062, -8955.929074140731, -11684.079504667781, -12072.619581014384, 0.0, 0.04800000227987766, 0.9600000455975533, 0.0, 0.0, 0.0, 0.0, 0.0, 1.756386388235695E9, 0.0, 2025-08-28 10:06:28.235
72.0, -2897.3771636220627, -8801.620801968966, -11925.58915415639, -12313.171816114336, 0.0, 0.04800000227987766, 0.9600000455975533, 0.0, 0.0, 0.0, 0.0, 0.0, 1.756386388235695E9, 0.0, 2025-08-28 10:06:28.235
73.0, -3032.9260976160876, -8746.50963622192, -11845.919935350306, -12208.789338401053, 0.0, 0.04800000227987766, 0.9600000455975533, 0.0, 0.0, 0.0, 0.0, 0.0, 1.7563863882492208E9, 0.0, 2025-08-28 10:06:28.249
73.0, -3015.520603222307, -8906.341740628239, -11838.387776839547, -12199.297472313512, 0.0, 0.04800000227987766, 0.9600000455975533, 0.0, 0.0, 0.0, 0.0, 0.0, 1.7563863882492208E9, 0.0, 2025-08-28 10:06:28.249
74.0, -2909.363542980049, -8934.222694797907, -11913.082928704564, -12296.409584512934, 0.0, 0.04800000227987766, 0.9600000455975533, 0.0, 0.0, 0.0, 0.0, 0.0, 1.7563863882649457E9, 0.0, 2025-08-28 10:06:28.264
74.0, -2977.455901473295, -8721.003518524114, -11685.852217246778, -12062.099242439028, 0.0, 0.04800000227987766, 0.9600000455975533, 0.0, 0.0, 0.0, 0.0, 0.0, 1.7563863882649457E9, 0.0, 2025-08-28 10:06:28.264
75.0, -3063.989706648048, -8902.044595579151, -11441.732117589097, -12302.047483696137, 0.0, 0.04800000227987766, 0.9600000455975533, 0.0, 0.0, 0.0, 0.0, 0.0, 1.7563863882657008E9, 0.0, 2025-08-28 10:06:28.265
75.0, -2928.2649973561056, -8993.739462692756, -11512.818265996873, -12396.152716331184, 0.0, 0.04800000227987766, 0.9600000455975533, 0.0, 0.0, 0.0, 0.0, 0.0, 1.7563863882657008E9, 0.0, 2025-08-28 10:06:28.265
76.0, -2910.3920154678635, -9160.021024572663, -11518.540312929079, -12382.801273489371, 0.0, 0.04800000227987766, 0.9600000455975533, 0.0, 0.0, 0.0, 0.0, 0.0, 1.7563863882792668E9, 0.0, 2025-08-28 10:06:28.279
76.0, -3069.9174480778165, -9305.682648046874, -11436.776750147808, -12295.764451770578, 0.0, 0.04800000227987766, 0.9600000455975533, 0.0, 0.0, 0.0, 0.0, 0.0, 1.7563863882792668E9, 0.0, 2025-08-28 10:06:28.279
77.0, -2973.016640225891, -9446.923709773459, -11665.907330783084, -12054.911154724192, 0.0, 0.04800000227987766, 0.9600000455975533, 0.0, 0.0, 0.0, 0.0, 0.0, 1.7563863882949488E9, 0.0, 2025-08-28 10:06:28.294
77.0, -2891.935609186534, -9267.07192090433, -11880.0783115956, -12281.521042789333, 0.0, 0.04800000227987766, 0.9600000455975533, 0.0, 0.0, 0.0, 0.0, 0.0, 1.7563863882949488E9, 0.0, 2025-08-28 10:06:28.294
78.0, -3045.5557397664525, -9255.814822037704, -11864.20804613363, -12240.552308724727, 0.0, 0.04800000227987766, 0.9600000455975533, 0.0, 0.0, 0.0, 0.0, 0.0, 1.7563863882956674E9, 0.0, 2025-08-28 10:06:28.295
78.0, -3006.3690680307336, -9391.184240833856, -11838.754287035204, -12204.8437439478, 0.0, 0.04800000227987766, 0.9600000455975533, 0.0, 0.0, 0.0, 0.0, 0.0, 1.7563863882956674E9, 0.0, 2025-08-28 10:06:28.295
79.0, -2892.6125310785137, -9402.056130005047, -11893.73642623378, -12267.22340525873, 0.0, 0.04800000227987766, 0.9600000455975533, 0.0, 0.0, 0.0, 0.0, 0.0, 1.7563863883092668E9, 0.0, 2025-08-28 10:06:28.309
79.0, -2979.699841446709, -9184.880139578134, -11695.860189528205, -12077.91527935164, 0.0, 0.04800000227987766, 0.9600000455975533, 0.0, 0.0, 0.0, 0.0, 0.0, 1.7563863883092668E9, 0.0, 2025-08-28 10:06:28.309
80.0, -3082.8724615243264, -9358.086126226, -11507.535657309461, -11858.893648296595, 0.0, 0.04800000227987766, 0.9760000463575125, 0.0, 0.0, 0.0, 0.0, 0.0, 1.7563863883249464E9, 0.0, 2025-08-28 10:06:28.324
80.0, -2936.350661060307, -9453.045926000923, -11513.113718093373, -11895.763452009764, 0.0, 0.04800000227987766, 0.9760000463575125, 0.0, 0.0, 0.0, 0.0, 0.0, 1.7563863883249464E9, 0.0, 2025-08-28 10:06:28.324
81.0, -2917.793277480174, -9667.893828705419, -11525.72466074396, -11876.977934532333, 0.0, 0.04800000227987766, 0.9760000463575125, 0.0, 0.0, 0.0, 0.0, 0.0, 1.7563863883257113E9, 0.0, 2025-08-28 10:06:28.325
81.0, -3075.7890910082497, -9809.228387930896, -11471.748554633465, -11833.095818402246, 0.0, 0.04800000227987766, 0.9760000463575125, 0.0, 0.0, 0.0, 0.0, 0.0, 1.7563863883257113E9, 0.0, 2025-08-28 10:06:28.325
82.0, -2949.0925002093427, -9927.255890632514, -11653.887292325497, -12029.621951223817, 0.0, 0.04800000227987766, 0.9760000463575125, 0.0, 0.0, 0.0, 0.0, 0.0, 1.756386388339245E9, 0.0, 2025-08-28 10:06:28.339
82.0, -2873.6063595036976, -9758.339569233824, -11872.175902989227, -12256.145821589977, 0.0, 0.04800000227987766, 0.9760000463575125, 0.0, 0.0, 0.0, 0.0, 0.0, 1.756386388339245E9, 0.0, 2025-08-28 10:06:28.339
83.0, -3050.0324000134133, -9723.446302647237, -11896.107522805687, -12253.735456068534, 0.0, 0.04800000227987766, 0.9760000463575125, 0.0, 0.0, 0.0, 0.0, 0.0, 1.7563863883549695E9, 0.0, 2025-08-28 10:06:28.354
83.0, -3008.9383793002926, -9869.276221619453, -11878.563652113546, -12236.270123275463, 0.0, 0.04800000227987766, 0.9760000463575125, 0.0, 0.0, 0.0, 0.0, 0.0, 1.7563863883549695E9, 0.0, 2025-08-28 10:06:28.354
84.0, -2873.744735802058, -9923.437452777755, -11876.379550539423, -12250.592070155777, 0.0, 0.04800000227987766, 0.9760000463575125, 0.0, 0.0, 0.0, 0.0, 0.0, 1.756386388355666E9, 0.0, 2025-08-28 10:06:28.355
84.0, -2978.8733235565014, -10155.455236178823, -11714.410093308426, -12065.895240894053, 0.0, 0.04800000227987766, 0.9760000463575125, 0.0, 0.0, 0.0, 0.0, 0.0, 1.756386388355666E9, 0.0, 2025-08-28 10:06:28.355
85.0, -3064.0832041469403, -10373.375466696918, -11487.366376848426, -12298.595556037035, 0.0, 0.04800000227987766, 0.9760000463575125, 0.0, 0.0, 0.0, 0.0, 0.0, 1.7563863883692615E9, 0.0, 2025-08-28 10:06:28.369
85.0, -2885.7797338594683, -10421.433181127533, -11459.39566507982, -12335.60747594852, 0.0, 0.04800000227987766, 0.9760000463575125, 0.0, 0.0, 0.0, 0.0, 0.0, 1.7563863883692615E9, 0.0, 2025-08-28 10:06:28.369
86.0, -2896.06071883766, -10655.56026810361, -11494.90227525914, -12362.729230427183, 0.0, 0.04800000227987766, 0.9760000463575125, 0.0, 0.0, 0.0, 0.0, 0.0, 1.7563863883847468E9, 0.0, 2025-08-28 10:06:28.384
86.0, -3076.5258512995206, -10826.331579880323, -11481.732217565179, -12346.806606365833, 0.0, 0.04800000227987766, 0.9760000463575125, 0.0, 0.0, 0.0, 0.0, 0.0, 1.7563863883847468E9, 0.0, 2025-08-28 10:06:28.384
87.0, -2937.835401342716, -10940.626662426163, -11639.09037815081, -12511.719364861958, 0.0, 0.04800000227987766, 0.9760000463575125, 0.0, 0.0, 0.0, 0.0, 0.0, 1.756386388399962E9, 0.0, 2025-08-28 10:06:28.399
87.0, -2858.321388384793, -10778.468340247404, -11838.986160832457, -12701.696932861116, 0.0, 0.04800000227987766, 0.9760000463575125, 0.0, 0.0, 0.0, 0.0, 0.0, 1.756386388399962E9, 0.0, 2025-08-28 10:06:28.399
88.0, -3054.871830556076, -10727.029756256845, -11869.563582870178, -12727.371346056927, 0.0, 0.04800000227987766, 0.9760000463575125, 0.0, 0.0, 0.0, 0.0, 0.0, 1.7563863884006844E9, 0.0, 2025-08-28 10:06:28.400
88.0, -2997.7934774323367, -10870.54467715649, -11826.69684957806, -12680.196248015855, 0.0, 0.04800000227987766, 0.9760000463575125, 0.0, 0.0, 0.0, 0.0, 0.0, 1.7563863884006844E9, 0.0, 2025-08-28 10:06:28.400
89.0, -2859.5555553701706, -10862.444053852465, -11818.13247867953, -12666.81114607444, 0.0, 0.04800000227987766, 0.9760000463575125, 0.0, 0.0, 0.0, 0.0, 0.0, 1.7563863884150548E9, 0.0, 2025-08-28 10:06:28.415
89.0, -2977.8224116689526, -10630.53659750009, -11688.535595464986, -12510.930245971307, 0.0, 0.04800000227987766, 0.9760000463575125, 0.0, 0.0, 0.0, 0.0, 0.0, 1.7563863884150548E9, 0.0, 2025-08-28 10:06:28.415
90.0, -3063.4922999539413, -10838.089825341012, -11470.422760099173, -12293.599049696233, 0.0, 0.04800000227987766, 0.9760000463575125, 0.0, 0.0, 0.0, 0.0, 0.0, 1.7563863884157224E9, 0.0, 2025-08-28 10:06:28.415
90.0, -2885.600218661595, -10949.090056025889, -11437.20870859269, -12274.955648417119, 0.0, 0.04800000227987766, 0.9760000463575125, 0.0, 0.0, 0.0, 0.0, 0.0, 1.7563863884157224E9, 0.0, 2025-08-28 10:06:28.415
91.0, -2908.5594644895755, -11168.448278076947, -11496.80401438661, -12329.24777607387, 0.0, 0.04800000227987766, 0.9760000463575125, 0.0, 0.0, 0.0, 0.0, 0.0, 1.756386388429232E9, 0.0, 2025-08-28 10:06:28.429
91.0, -3100.9623576099984, -11294.542744982988, -11483.13654999854, -12336.203989991453, 0.0, 0.04800000227987766, 0.9760000463575125, 0.0, 0.0, 0.0, 0.0, 0.0, 1.756386388429232E9, 0.0, 2025-08-28 10:06:28.429
92.0, -2933.6691527920775, -11428.131971400231, -11601.663329344243, -12481.168122123927, 0.0, 0.04800000227987766, 0.9760000463575125, 0.0, 0.0, 0.0, 0.0, 0.0, 1.7563863884449527E9, 0.0, 2025-08-28 10:06:28.444
92.0, -2855.3107689204626, -11216.797704704106, -11797.4901008741, -12674.58639808232, 0.0, 0.04800000227987766, 0.9760000463575125, 0.0, 0.0, 0.0, 0.0, 0.0, 1.7563863884449527E9, 0.0, 2025-08-28 10:06:28.444
93.0, -3055.825505044777, -11215.967446913943, -11864.404390881304, -12698.787290695589, 0.0, 0.04800000227987766, 0.9760000463575125, 0.0, 0.0, 0.0, 0.0, 0.0, 1.7563863884456885E9, 0.0, 2025-08-28 10:06:28.445
93.0, -2997.393308137078, -11381.611355851404, -11805.564544878434, -12642.067967967596, 0.0, 0.04800000227987766, 0.9760000463575125, 0.0, 0.0, 0.0, 0.0, 0.0, 1.7563863884456885E9, 0.0, 2025-08-28 10:06:28.445
94.0, -2858.2540701855905, -11357.911609832197, -11791.614718043711, -12653.139941786416, 0.0, 0.04800000227987766, 0.9760000463575125, 0.0, 0.0, 0.0, 0.0, 0.0, 1.7563863884592812E9, 0.0, 2025-08-28 10:06:28.459
94.0, -2997.2137929392047, -11148.249078416266, -11728.991963235661, -12549.374547565822, 0.0, 0.04800000227987766, 0.9760000463575125, 0.0, 0.0, 0.0, 0.0, 0.0, 1.7563863884592812E9, 0.0, 2025-08-28 10:06:28.459
95.0, -3075.445020212326, -11315.370247836225, -11513.43721943954, -12342.234578670003, 0.0, 0.04800000227987766, 0.9760000463575125, 0.0, 0.0, 0.0, 0.0, 0.0, 1.7563863884749207E9, 0.0, 2025-08-28 10:06:28.474
95.0, -2857.8688604901545, -11384.640674815513, -11415.15264860401, -12260.764598035254, 0.0, 0.04800000227987766, 0.9760000463575125, 0.0, 0.0, 0.0, 0.0, 0.0, 1.7563863884749207E9, 0.0, 2025-08-28 10:06:28.474
96.0, -2893.6634429660626, -11619.238989186008, -11479.60608444037, -12353.271023439243, 0.0, 0.04800000227987766, 0.9760000463575125, 0.0, 0.0, 0.0, 0.0, 0.0, 1.756386388475701E9, 0.0, 2025-08-28 10:06:28.475
96.0, -3097.3570940527134, -11772.298134772573, -11495.152848556172, -12353.798349332996, 0.0, 0.04800000227987766, 0.9760000463575125, 0.0, 0.0, 0.0, 0.0, 0.0, 1.756386388475701E9, 0.0, 2025-08-28 10:06:28.475
97.0, -2910.410714967642, -11868.697796030436, -11603.379943423904, -12443.520419219974, 0.0, 0.04800000227987766, 0.9760000463575125, 0.0, 0.0, 0.0, 0.0, 0.0, 1.7563863884892964E9, 0.0, 2025-08-28 10:06:28.489
97.0, -2851.264197168406, -11711.992247987073, -11829.656980392989, -12685.246982906014, 0.0, 0.04800000227987766, 0.9760000463575125, 0.0, 0.0, 0.0, 0.0, 0.0, 1.7563863884892964E9, 0.0, 2025-08-28 10:06:28.489
98.0, -3068.69076089235, -11729.29676508205, -11908.318296161015, -12726.198887420818, 0.0, 0.04800000227987766, 0.9760000463575125, 0.0, 0.0, 0.0, 0.0, 0.0, 1.7563863885049245E9, 0.0, 2025-08-28 10:06:28.504
98.0, -2982.8263978096657, -11844.564221616369, -11796.087638390716, -12634.00287371315, 0.0, 0.04800000227987766, 0.9760000463575125, 0.0, 0.0, 0.0, 0.0, 0.0, 1.7563863885049245E9, 0.0, 2025-08-28 10:06:28.504
99.0, -2831.1771945063956, -11821.429200490471, -11759.694671921898, -12624.847598621622, 0.0, 0.04800000227987766, 0.9760000463575125, 0.0, 0.0, 0.0, 0.0, 0.0, 1.7563863885056777E9, 0.0, 2025-08-28 10:06:28.505
99.0, -2983.0919307065196, -11633.274833719712, -11716.564275682904, -12545.829122407828, 0.0, 0.04800000227987766, 0.9760000463575125, 0.0, 0.0, 0.0, 0.0, 0.0, 1.7563863885056777E9, 0.0, 2025-08-28 10:06:28.505
100.0, -3067.7707455032505, -11817.816457133275, -11477.025553470943, -12310.09761835076, 0.0, 0.04800000227987766, 0.9760000463575125, 0.0, 0.0, 0.0, 0.0, 0.0, 1.7563863885199215E9, 0.0, 2025-08-28 10:06:28.519
100.0, -2861.9079524422996, -11879.996033796575, -11360.819382047746, -12218.582266435027, 0.0, 0.04800000227987766, 0.9760000463575125, 0.0, 0.0, 0.0, 0.0, 0.0, 1.7563863885199215E9, 0.0, 2025-08-28 10:06:28.519
0.0, -2894.4974406561814, 97.42252389574423, -11972.354733152315, -11331.247993098106, 0.0, 0.04800000227987766, 0.9760000463575125, 0.0, 0.0, 0.0, 0.0, 0.0, 1.7563863885206404E9, 0.0, 2025-08-28 10:06:28.520
1.0, -3099.892746222671, -46.5224854988046, -11991.308546127751, -11358.489424375352, 0.0, 0.06400000303983688, 0.9760000463575125, 0.0, 0.0, 0.0, 0.0, 0.0, 1.7563863885342624E9, 0.0, 2025-08-28 10:06:28.534
1.0, -2910.5715306657366, -133.2657250710763, -12046.649715722073, -11463.818096777424, 0.0, 0.06400000303983688, 0.9760000463575125, 0.0, 0.0, 0.0, 0.0, 0.0, 1.7563863885342624E9, 0.0, 2025-08-28 10:06:28.534
2.0, -2840.7775176926516, 46.81045779539272, -12279.131246717647, -11687.903552372474, 0.0, 0.06400000303983688, 0.9760000463575125, 0.0, 0.0, 0.0, 0.0, 0.0, 1.756386388549934E9, 0.0, 2025-08-28 10:06:28.549
2.0, -3062.4526077662595, 63.83822229364887, -12390.7074219957, -11768.670431815553, 0.0, 0.06400000303983688, 0.9760000463575125, 0.0, 0.0, 0.0, 0.0, 0.0, 1.756386388549934E9, 0.0, 2025-08-28 10:06:28.549
3.0, -2966.2698607058264, -78.46871092030779, -12259.736125547439, -11656.581890243571, 0.0, 0.06400000303983688, 0.9760000463575125, 0.0, 0.0, 0.0, 0.0, 0.0, 1.7563863885506372E9, 0.0, 2025-08-28 10:06:28.550
3.0, -2817.6237970669754, -85.72037693439052, -12211.43905751966, -11596.91926625045, 0.0, 0.06400000303983688, 0.9760000463575125, 0.0, 0.0, 0.0, 0.0, 0.0, 1.7563863885506372E9, 0.0, 2025-08-28 10:06:28.550
4.0, -2969.871384363156, 137.18514022463933, -12171.726929840166, -11540.979712663218, 0.0, 0.06400000303983688, 0.9760000463575125, 0.0, 0.0, 0.0, 0.0, 0.0, 1.756386388564272E9, 0.0, 2025-08-28 10:06:28.564
4.0, -3052.29129958665, -89.90906488476321, -11938.88262854889, -11782.84278269764, 0.0, 0.06400000303983688, 0.9760000463575125, 0.0, 0.0, 0.0, 0.0, 0.0, 1.756386388564272E9, 0.0, 2025-08-28 10:06:28.564
5.0, -2834.5281448666938, -131.88196208747104, -11814.871285918169, -11683.215587778017, 0.0, 0.06400000303983688, 0.9760000463575125, 0.0, 0.0, 0.0, 0.0, 0.0, 1.7563863885799274E9, 0.0, 2025-08-28 10:06:28.579
5.0, -2879.934270228725, -333.7486720457673, -11926.14452929981, -11800.091201293282, 0.0, 0.06400000303983688, 0.9760000463575125, 0.0, 0.0, 0.0, 0.0, 0.0, 1.7563863885799274E9, 0.0, 2025-08-28 10:06:28.579
6.0, -3072.419441148173, -502.41068024747074, -11964.100773950107, -11805.757149726152, 0.0, 0.06400000303983688, 0.9760000463575125, 0.0, 0.0, 0.0, 0.0, 0.0, 1.75638638858065E9, 0.0, 2025-08-28 10:06:28.580
6.0, -2899.232154000085, -569.8635158482939, -12009.63592586061, -11880.037172696088, 0.0, 0.06400000303983688, 0.9760000463575125, 0.0, 0.0, 0.0, 0.0, 0.0, 1.75638638858065E9, 0.0, 2025-08-28 10:06:28.580
7.0, -2822.407129110303, -399.0024464726448, -12243.744313336909, -12119.781589405611, 0.0, 0.06400000303983688, 0.9760000463575125, 0.0, 0.0, 0.0, 0.0, 0.0, 1.7563863885942476E9, 0.0, 2025-08-28 10:06:28.594
7.0, -3051.88365049148, -415.35702897887677, -12379.091292733327, -12233.04445956368, 0.0, 0.06400000303983688, 0.9760000463575125, 0.0, 0.0, 0.0, 0.0, 0.0, 1.7563863885942476E9, 0.0, 2025-08-28 10:06:28.594
8.0, -2968.5998183782212, -618.3550586737692, -12255.8653290933, -12143.35791872628, 0.0, 0.06400000303983688, 0.9760000463575125, 0.0, 0.0, 0.0, 0.0, 0.0, 1.7563863886099265E9, 0.0, 2025-08-28 10:06:28.609
8.0, -2824.34439728735, -548.9350356962532, -12193.521196831949, -12117.462851433083, 0.0, 0.06400000303983688, 0.9760000463575125, 0.0, 0.0, 0.0, 0.0, 0.0, 1.7563863886099265E9, 0.0, 2025-08-28 10:06:28.609
9.0, -2966.2324617062695, -338.7975369859487, -12182.299627014901, -12061.067030051257, 0.0, 0.06400000303983688, 0.9760000463575125, 0.0, 0.0, 0.0, 0.0, 0.0, 1.7563863886106472E9, 0.0, 2025-08-28 10:06:28.610
9.0, -3055.0214265543036, -554.1222769347951, -11939.118242246099, -12304.61305506574, 0.0, 0.06400000303983688, 0.9760000463575125, 0.0, 0.0, 0.0, 0.0, 0.0, 1.7563863886106472E9, 0.0, 2025-08-28 10:06:28.610
10.0, -2846.3611883264966, -598.4251318098977, -11824.408030805178, -12205.501966340002, 0.0, 0.06400000303983688, 0.9760000463575125, 0.0, 0.0, 0.0, 0.0, 0.0, 1.756386388624246E9, 0.0, 2025-08-28 10:06:28.624
10.0, -2885.4768019630574, -354.4751976002008, -11939.26409834437, -12338.541427463759, 0.0, 0.06400000303983688, 0.9760000463575125, 0.0, 0.0, 0.0, 0.0, 0.0, 1.756386388624246E9, 0.0, 2025-08-28 10:06:28.624
11.0, -3093.561095597688, -535.4152973564342, -11985.380804697983, -12351.896610205527, 0.0, 0.06400000303983688, 0.9760000463575125, 0.0, 0.0, 0.0, 0.0, 0.0, 1.756386388639916E9, 0.0, 2025-08-28 10:06:28.639
11.0, -2898.3906765100546, -635.8278712667525, -12017.755248664413, -12389.51813380979, 0.0, 0.06400000303983688, 0.9760000463575125, 0.0, 0.0, 0.0, 0.0, 0.0, 1.756386388639916E9, 0.0, 2025-08-28 10:06:28.639
12.0, -2830.436694315169, -470.23632092867047, -11778.962636493612, -12629.658979914617, 0.0, 0.06400000303983688, 0.9760000463575125, 0.0, 0.0, 0.0, 0.0, 0.0, 1.7563863886406348E9, 0.0, 2025-08-28 10:06:28.640
12.0, -3056.6520229349844, -417.3466557553038, -11907.259904473554, -12749.403096695896, 0.0, 0.06400000303983688, 0.9760000463575125, 0.0, 0.0, 0.0, 0.0, 0.0, 1.7563863886406348E9, 0.0, 2025-08-28 10:06:28.640
13.0, -2988.058517847676, -607.6103261010721, -11788.267507583369, -12605.323450902943, 0.0, 0.06400000303983688, 0.9760000463575125, 0.0, 0.0, 0.0, 0.0, 0.0, 1.75638638867066E9, 0.0, 2025-08-28 10:06:28.670
13.0, -2823.96292749187, -567.679414274171, -11709.86050501233, -12569.5064290273, 0.0, 0.06400000303983688, 0.9760000463575125, 0.0, 0.0, 0.0, 0.0, 0.0, 1.75638638867066E9, 0.0, 2025-08-28 10:06:28.670
14.0, -2978.757386657875, -357.7663095612079, -11700.834256469272, -12551.11173109524, 0.0, 0.06400000303983688, 0.9760000463575125, 0.0, 0.0, 0.0, 0.0, 0.0, 1.7563863886713445E9, 0.0, 2025-08-28 10:06:28.671
14.0, -3057.403742826078, -593.3575673699379, -11459.462983279023, -12779.425143590197, 0.0, 0.06400000303983688, 0.9760000463575125, 0.0, 0.0, 0.0, 0.0, 0.0, 1.7563863886713445E9, 0.0, 2025-08-28 10:06:28.671
15.0, -2851.735424562823, -644.1603683680296, -11333.039405176882, -12695.191376888193, 0.0, 0.06400000303983688, 0.9760000463575125, 0.0, 0.0, 0.0, 0.0, 0.0, 1.7563863886720908E9, 0.0, 2025-08-28 10:06:28.672
15.0, -2891.875770787243, -859.6253545652144, -11465.181290311273, -12832.950591756031, 0.0, 0.06400000303983688, 0.9760000463575125, 0.0, 0.0, 0.0, 0.0, 0.0, 1.7563863886720908E9, 0.0, 2025-08-28 10:06:28.672
16.0, -3103.0716611850075, -1014.7938037267886, -11518.785276376177, -12852.356932626106, 0.0, 0.06400000303983688, 0.9760000463575125, 0.0, 0.0, 0.0, 0.0, 0.0, 1.756386388684218E9, 0.0, 2025-08-28 10:06:28.684
16.0, -2903.076771154534, -1136.7257619821467, -11518.037296385039, -12881.817994527053, 0.0, 0.06400000303983688, 0.9760000463575125, 0.0, 0.0, 0.0, 0.0, 0.0, 1.756386388684218E9, 0.0, 2025-08-28 10:06:28.684
17.0, -2826.951107556466, -965.49818241084, -11745.881351435557, -13097.971122316085, 0.0, 0.06400000303983688, 0.9760000463575125, 0.0, 0.0, 0.0, 0.0, 0.0, 1.7563863886999607E9, 0.0, 2025-08-28 10:06:28.699
17.0, -3057.8787101204507, -971.3025071420707, -11886.202397773042, -13228.706805067137, 0.0, 0.06400000303983688, 0.9760000463575125, 0.0, 0.0, 0.0, 0.0, 0.0, 1.7563863886999607E9, 0.0, 2025-08-28 10:06:28.699
18.0, -2997.3035505381413, -1167.7631917144172, -11754.991747727618, -13108.181049195118, 0.0, 0.06400000303983688, 0.9760000463575125, 0.0, 0.0, 0.0, 0.0, 0.0, 1.756386388700709E9, 0.0, 2025-08-28 10:06:28.700
18.0, -2821.161742425058, -1103.0816219807602, -11687.149962531403, -13055.037070824765, 0.0, 0.06400000303983688, 0.9760000463575125, 0.0, 0.0, 0.0, 0.0, 0.0, 1.756386388700709E9, 0.0, 2025-08-28 10:06:28.700
19.0, -2986.9664670606144, -862.3031229334883, -11681.411086049397, -13018.862888503354, 0.0, 0.06400000303983688, 0.9760000463575125, 0.0, 0.0, 0.0, 0.0, 0.0, 1.756386388714246E9, 0.0, 2025-08-28 10:06:28.714
19.0, -3069.7715919795446, -1104.1624530679546, -11460.354949418455, -12783.004227847792, 0.0, 0.06400000303983688, 0.9760000463575125, 0.0, 0.0, 0.0, 0.0, 0.0, 1.756386388714246E9, 0.0, 2025-08-28 10:06:28.714
20.0, -2855.030276423786, -1141.0939651303925, -11322.640613350086, -12672.688398854807, 0.0, 0.06400000303983688, 0.9760000463575125, 0.0, 0.0, 0.0, 0.0, 0.0, 1.756386388729977E9, 0.0, 2025-08-28 10:06:28.729
20.0, -2879.320926635992, -1342.3847304955125, -11418.77848161105, -12791.5536391465, 0.0, 0.06400000303983688, 0.9760000463575125, 0.0, 0.0, 0.0, 0.0, 0.0, 1.756386388729977E9, 0.0, 2025-08-28 10:06:28.729
21.0, -3089.488344545942, -1511.8021984882653, -11494.47779661417, -12818.664173925295, 0.0, 0.04800000227987766, 0.9760000463575125, 0.0, 0.0, 0.0, 0.0, 0.0, 1.7563863887307384E9, 0.0, 2025-08-28 10:06:28.730
21.0, -2909.2326464815997, -1645.5111017040908, -11544.702783069108, -12895.76408146182, 0.0, 0.04800000227987766, 0.9760000463575125, 0.0, 0.0, 0.0, 0.0, 0.0, 1.7563863887307384E9, 0.0, 2025-08-28 10:06:28.730
22.0, -2830.1075831190683, -1434.9996129982173, -11782.674487199634, -12654.241342323367, 0.0, 0.04800000227987766, 0.9760000463575125, 0.0, 0.0, 0.0, 0.0, 0.0, 1.7563863887442443E9, 0.0, 2025-08-28 10:06:28.744
22.0, -3058.8697836087085, -1373.5754961259663, -11918.68342888821, -12743.127544570249, 0.0, 0.04800000227987766, 0.9760000463575125, 0.0, 0.0, 0.0, 0.0, 0.0, 1.7563863887442443E9, 0.0, 2025-08-28 10:06:28.744
23.0, -2993.58235008223, -1604.0842298949137, -11804.635179739445, -12655.99909530254, 0.0, 0.04800000227987766, 0.9760000463575125, 0.0, 0.0, 0.0, 0.0, 0.0, 1.7563863887599435E9, 0.0, 2025-08-28 10:06:28.759
23.0, -2827.942181044724, -1552.5035297060385, -11744.763121348806, -12621.472338911612, 0.0, 0.04800000227987766, 0.9760000463575125, 0.0, 0.0, 0.0, 0.0, 0.0, 1.7563863887599435E9, 0.0, 2025-08-28 10:06:28.759
24.0, -2977.938348567579, -1327.1782972756773, -11721.667369172443, -12567.67574799899, 0.0, 0.04800000227987766, 0.9760000463575125, 0.0, 0.0, 0.0, 0.0, 0.0, 1.7563863887606685E9, 0.0, 2025-08-28 10:06:28.760
24.0, -3068.50002599461, -1543.6511865109205, -11495.087400306948, -12341.58570602769, 0.0, 0.04800000227987766, 0.9760000463575125, 0.0, 0.0, 0.0, 0.0, 0.0, 1.7563863887606685E9, 0.0, 2025-08-28 10:06:28.760
25.0, -2853.051869347226, -1636.5203822106123, -11356.617604447529, -12233.700812005904, 0.0, 0.04800000227987766, 0.9760000463575125, 0.0, 0.0, 0.0, 0.0, 0.0, 1.7563863887742429E9, 0.0, 2025-08-28 10:06:28.774
25.0, -2879.3396261357702, -1826.5727482088841, -11495.053741207346, -12368.613963007461, 0.0, 0.04800000227987766, 0.9760000463575125, 0.0, 0.0, 0.0, 0.0, 0.0, 1.7563863887742429E9, 0.0, 2025-08-28 10:06:28.774
26.0, -3087.218225272838, -1985.2754028285854, -11543.66870073136, -12407.49770284677, 0.0, 0.04800000227987766, 0.9760000463575125, 0.0, 0.0, 0.0, 0.0, 0.0, 1.7563863887899785E9, 0.0, 2025-08-28 10:06:28.789
26.0, -2911.5364248543046, -2087.901997512672, -11562.242913861293, -12465.2772872122, 0.0, 0.04800000227987766, 0.9760000463575125, 0.0, 0.0, 0.0, 0.0, 0.0, 1.7563863887899785E9, 0.0, 2025-08-28 10:06:28.789
27.0, -2822.2799725118093, -1886.9796122931875, -11796.265283638611, -12687.859303025063, 0.0, 0.04800000227987766, 0.9760000463575125, 0.0, 0.0, 0.0, 0.0, 0.0, 1.7563863887907128E9, 0.0, 2025-08-28 10:06:28.790
27.0, -3052.377317285631, -1845.788354181219, -11937.326830167323, -12789.97353141522, 0.0, 0.04800000227987766, 0.9760000463575125, 0.0, 0.0, 0.0, 0.0, 0.0, 1.7563863887907128E9, 0.0, 2025-08-28 10:06:28.790
28.0, -2982.4150088145398, -2077.9688232303597, -11806.363013518974, -12665.337625491899, 0.0, 0.04800000227987766, 0.9760000463575125, 0.0, 0.0, 0.0, 0.0, 0.0, 1.7563863888042784E9, 0.0, 2025-08-28 10:06:28.804
28.0, -2817.893069863785, -2038.2211665012874, -11729.552948229015, -12592.289899557363, 0.0, 0.04800000227987766, 0.9760000463575125, 0.0, 0.0, 0.0, 0.0, 0.0, 1.7563863888042784E9, 0.0, 2025-08-28 10:06:28.804
29.0, -2966.9467825978063, -1811.8338024835102, -11712.94966237573, -12572.556317441165, 0.0, 0.04800000227987766, 0.9760000463575125, 0.0, 0.0, 0.0, 0.0, 0.0, 1.756386388819985E9, 0.0, 2025-08-28 10:06:28.819
29.0, -3061.181041781325, -2030.3598967944272, -11951.113971353974, -12330.395925360266, 0.0, 0.04800000227987766, 0.9760000463575125, 0.0, 0.0, 0.0, 0.0, 0.0, 1.756386388819985E9, 0.0, 2025-08-28 10:06:28.819
30.0, -2850.5984949762933, -2062.5604354129173, -11836.919866106939, -12215.367822423112, 0.0, 0.04800000227987766, 0.9760000463575125, 0.0, 0.0, 0.0, 0.0, 0.0, 1.7563863888206856E9, 0.0, 2025-08-28 10:06:28.820
30.0, -2874.5151551929303, -2287.3564719995484, -11953.346691627521, -12322.209284357261, 0.0, 0.04800000227987766, 0.9760000463575125, 0.0, 0.0, 0.0, 0.0, 0.0, 1.7563863888206856E9, 0.0, 2025-08-28 10:06:28.820
31.0, -3096.2949624652974, -2473.6034897929057, -12030.145537217613, -12395.25327039184, 0.0, 0.04800000227987766, 0.9760000463575125, 0.0, 0.0, 0.0, 0.0, 0.0, 1.7563863888342245E9, 0.0, 2025-08-28 10:06:28.834
31.0, -2902.452207861934, -2606.2727008210495, -12036.669792690314, -12434.696125274524, 0.0, 0.04800000227987766, 0.9760000463575125, 0.0, 0.0, 0.0, 0.0, 0.0, 1.7563863888342245E9, 0.0, 2025-08-28 10:06:28.834
32.0, -2821.4571945215575, -2377.1439901357517, -12265.733055126388, -12655.636325006839, 0.0, 0.04800000227987766, 0.9760000463575125, 0.0, 0.0, 0.0, 0.0, 0.0, 1.7563863888499703E9, 0.0, 2025-08-28 10:06:28.849
32.0, -3052.676509282086, -2348.047568480484, -12408.436417735647, -12766.999325987417, 0.0, 0.04800000227987766, 0.9760000463575125, 0.0, 0.0, 0.0, 0.0, 0.0, 1.7563863888499703E9, 0.0, 2025-08-28 10:06:28.849
33.0, -2981.4538545259275, -2584.016556184739, -12284.462474104483, -12647.359926404897, 0.0, 0.04800000227987766, 0.9760000463575125, 0.0, 0.0, 0.0, 0.0, 0.0, 1.7563863888506813E9, 0.0, 2025-08-28 10:06:28.850
33.0, -2819.908875939902, -2506.0733012082055, -12196.552385746036, -12612.492839118, 0.0, 0.04800000227987766, 0.9760000463575125, 0.0, 0.0, 0.0, 0.0, 0.0, 1.7563863888506813E9, 0.0, 2025-08-28 10:06:28.850
34.0, -2961.7333620595746, -2736.6587029262446, -12193.319242234342, -12570.039364770986, 0.0, 0.04800000227987766, 0.9760000463575125, 0.0, 0.0, 0.0, 0.0, 0.0, 1.7563863888642209E9, 0.0, 2025-08-28 10:06:28.864
34.0, -3048.517740531359, -2542.006259982474, -12434.153839780949, -12792.327798437327, 0.0, 0.04800000227987766, 0.9760000463575125, 0.0, 0.0, 0.0, 0.0, 0.0, 1.7563863888642209E9, 0.0, 2025-08-28 10:06:28.864
35.0, -2834.1840740707703, -2594.746329157613, -12302.344805742614, -12687.457263779826, 0.0, 0.04800000227987766, 0.9760000463575125, 0.0, 0.0, 0.0, 0.0, 0.0, 1.7563863888797014E9, 0.0, 2025-08-28 10:06:28.879
35.0, -2861.6125003458, -2765.055763289798, -12458.044320697896, -12803.932707999833, 0.0, 0.04800000227987766, 0.9760000463575125, 0.0, 0.0, 0.0, 0.0, 0.0, 1.7563863888797014E9, 0.0, 2025-08-28 10:06:28.879
36.0, -3082.008544634562, -2955.0651204385795, -12508.596548398957, -12825.474531744607, 0.0, 0.04800000227987766, 0.9760000463575125, 0.0, 0.0, 0.0, 0.0, 0.0, 1.7563863888949625E9, 0.0, 2025-08-28 10:06:28.894
36.0, -2892.5190335796215, -3059.842157597188, -12517.858410639223, -12846.685374343302, 0.0, 0.04800000227987766, 0.9760000463575125, 0.0, 0.0, 0.0, 0.0, 0.0, 1.7563863888949625E9, 0.0, 2025-08-28 10:06:28.894
37.0, -2814.2915462064557, -2854.2897762325592, -12740.833115947433, -12634.66296605533, 0.0, 0.04800000227987766, 0.9760000463575125, 0.0, 0.0, 0.0, 0.0, 0.0, 1.7563863888957272E9, 0.0, 2025-08-28 10:06:28.895
37.0, -3045.828752463218, -2817.8369713644497, -12885.679441231303, -12746.0858054352, 0.0, 0.04800000227987766, 0.9760000463575125, 0.0, 0.0, 0.0, 0.0, 0.0, 1.7563863888957272E9, 0.0, 2025-08-28 10:06:28.895
38.0, -2984.4195951907896, -3049.179702823516, -12757.307375252247, -12608.356509767007, 0.0, 0.04800000227987766, 0.9760000463575125, 0.0, 0.0, 0.0, 0.0, 0.0, 1.756386388909999E9, 0.0, 2025-08-28 10:06:28.909
38.0, -2802.566959845368, -2984.5617113891058, -12678.679718583822, -12531.789537974168, 0.0, 0.04800000227987766, 0.9760000463575125, 0.0, 0.0, 0.0, 0.0, 0.0, 1.756386388909999E9, 0.0, 2025-08-28 10:06:28.909
39.0, -2959.1902300897054, -2775.452685166616, -12644.697117636446, -12505.129661140032, 0.0, 0.04800000227987766, 0.9760000463575125, 0.0, 0.0, 0.0, 0.0, 0.0, 1.756386388910726E9, 0.0, 2025-08-28 10:06:28.910
39.0, -3053.966774766799, -3019.208144578617, -12428.637487346306, -12270.490207870025, 0.0, 0.04800000227987766, 0.9760000463575125, 0.0, 0.0, 0.0, 0.0, 0.0, 1.756386388910726E9, 0.0, 2025-08-28 10:06:28.910
40.0, -2835.033031360712, -3081.3278828426264, -12312.487414422445, -12166.064721307252, 0.0, 0.04800000227987766, 0.9760000463575125, 0.0, 0.0, 0.0, 0.0, 0.0, 1.7563863889242957E9, 0.0, 2025-08-28 10:06:28.924
40.0, -2856.657132904511, -3270.430314252153, -12429.6846593339, -12295.58867647266, 0.0, 0.04800000227987766, 0.9760000463575125, 0.0, 0.0, 0.0, 0.0, 0.0, 1.7563863889242957E9, 0.0, 2025-08-28 10:06:28.924
41.0, -3084.009391110856, -3446.6992789637297, -12494.9533933606, -12347.861258153338, 0.0, 0.04800000227987766, 0.9760000463575125, 0.0, 0.0, 0.0, 0.0, 0.0, 1.7563863889399595E9, 0.0, 2025-08-28 10:06:28.939
41.0, -2902.508306361269, -3554.071806691587, -12540.630661469419, -12403.890569339506, 0.0, 0.04800000227987766, 0.9760000463575125, 0.0, 0.0, 0.0, 0.0, 0.0, 1.7563863889399595E9, 0.0, 2025-08-28 10:06:28.939
42.0, -2810.667583149392, -3359.8999408921227, -12750.740110930055, -12614.403927995358, 0.0, 0.04800000227987766, 0.9760000463575125, 0.0, 0.0, 0.0, 0.0, 0.0, 1.756386388940684E9, 0.0, 2025-08-28 10:06:28.940
42.0, -3043.7942468873225, -3314.849106025882, -12866.0898452634, -12727.315247557592, 0.0, 0.04800000227987766, 0.9760000463575125, 0.0, 0.0, 0.0, 0.0, 0.0, 1.756386388940684E9, 0.0, 2025-08-28 10:06:28.940
43.0, -2965.0132543207146, -3537.1711987918243, -12755.81141526997, -12597.200388199184, 0.0, 0.04800000227987766, 0.9760000463575125, 0.0, 0.0, 0.0, 0.0, 0.0, 1.756386388954314E9, 0.0, 2025-08-28 10:06:28.954
43.0, -2806.2844204013236, -3488.3468048702925, -12655.294124160893, -12549.666259762365, 0.0, 0.04800000227987766, 0.9760000463575125, 0.0, 0.0, 0.0, 0.0, 0.0, 1.756386388954314E9, 0.0, 2025-08-28 10:06:28.954
44.0, -2958.5394874974154, -3253.3950699539855, -12638.118633614387, -12538.354932346381, 0.0, 0.04800000227987766, 0.9760000463575125, 0.0, 0.0, 0.0, 0.0, 0.0, 1.7563863889699812E9, 0.0, 2025-08-28 10:06:28.969
44.0, -3038.749121847097, -3497.146789466031, -12409.38074247446, -12767.259249034338, 0.0, 0.04800000227987766, 0.9760000463575125, 0.0, 0.0, 0.0, 0.0, 0.0, 1.7563863889699812E9, 0.0, 2025-08-28 10:06:28.969
45.0, -2829.374562727753, -3550.417924434878, -12275.454925061204, -12663.716378861107, 0.0, 0.04800000227987766, 0.9760000463575125, 0.0, 0.0, 0.0, 0.0, 0.0, 1.7563863889706872E9, 0.0, 2025-08-28 10:06:28.970
45.0, -2856.9525850010104, -3773.635723240208, -12397.255986818112, -12791.57981844619, 0.0, 0.04800000227987766, 0.9760000463575125, 0.0, 0.0, 0.0, 0.0, 0.0, 1.7563863889706872E9, 0.0, 2025-08-28 10:06:28.970
46.0, -3065.582904029172, -3936.2989319129847, -12449.603366497904, -12791.102981201839, 0.0, 0.04800000227987766, 0.9760000463575125, 0.0, 0.0, 0.0, 0.0, 0.0, 1.7563863889842815E9, 0.0, 2025-08-28 10:06:28.984
46.0, -2876.400064770598, -4040.2382314815186, -12478.503443405498, -12827.333262022585, 0.0, 0.04800000227987766, 0.9760000463575125, 0.0, 0.0, 0.0, 0.0, 0.0, 1.7563863889842815E9, 0.0, 2025-08-28 10:06:28.984
47.0, -2792.0915000694804, -3862.6827411851846, -12691.616032530554, -13070.409929592628, 0.0, 0.04800000227987766, 0.9760000463575125, 0.0, 0.0, 0.0, 0.0, 0.0, 1.7563863890163484E9, 0.0, 2025-08-28 10:06:29.016
47.0, -3011.3132157721557, -3850.449528430123, -12809.759472130798, -13164.778825174551, 0.0, 0.04800000227987766, 0.9760000463575125, 0.0, 0.0, 0.0, 0.0, 0.0, 1.7563863890163484E9, 0.0, 2025-08-28 10:06:29.016
48.0, -2971.475801444147, -4032.608835571911, -12719.126736604609, -13061.968975392636, 0.0, 0.04800000227987766, 0.9760000463575125, 0.0, 0.0, 0.0, 0.0, 0.0, 1.7563863890170853E9, 0.0, 2025-08-28 10:06:29.017
48.0, -2797.9182642004453, -3994.4207171243615, -12667.66197331436, -13032.539702641312, 0.0, 0.04800000227987766, 0.9760000463575125, 0.0, 0.0, 0.0, 0.0, 0.0, 1.7563863890170853E9, 0.0, 2025-08-28 10:06:29.017
49.0, -2946.6952243377455, -3764.334592050407, -12638.859133805614, -12986.694139034487, 0.0, 0.04800000227987766, 0.9760000463575125, 0.0, 0.0, 0.0, 0.0, 0.0, 1.7563863890178745E9, 0.0, 2025-08-28 10:06:29.017
49.0, -3044.1532772830687, -4002.8878506240435, -12415.596456200816, -13229.926012452692, 0.0, 0.04800000227987766, 0.9760000463575125, 0.0, 0.0, 0.0, 0.0, 0.0, 1.7563863890178745E9, 0.0, 2025-08-28 10:06:29.017
50.0, -2829.759772423189, -4041.0984084713273, -12272.414386397228, -13103.22568175383, 0.0, 0.04800000227987766, 0.9760000463575125, 0.0, 0.0, 0.0, 0.0, 0.0, 1.7563863890185392E9, 0.0, 2025-08-28 10:06:29.018
50.0, -2847.9880448072217, -4223.648535158485, -12376.836133060046, -13208.982572700828, 0.0, 0.04800000227987766, 0.9760000463575125, 0.0, 0.0, 0.0, 0.0, 0.0, 1.7563863890185392E9, 0.0, 2025-08-28 10:06:29.018
51.0, -3064.558171441313, -4398.376661088318, -12413.827483521774, -13265.638317129575, 0.0, 0.04800000227987766, 0.9760000463575125, 0.0, 0.0, 0.0, 0.0, 0.0, 1.7563863890292459E9, 0.0, 2025-08-28 10:06:29.029
51.0, -2896.5356861320324, -4561.559715854935, -12479.191584997345, -13331.410067700315, 0.0, 0.04800000227987766, 0.9760000463575125, 0.0, 0.0, 0.0, 0.0, 0.0, 1.7563863890292459E9, 0.0, 2025-08-28 10:06:29.029
52.0, -2800.2407420729287, -4320.164133314975, -12700.16544382926, -13550.70097155217, 0.0, 0.04800000227987766, 0.9760000463575125, 0.0, 0.0, 0.0, 0.0, 0.0, 1.7563863890442388E9, 0.0, 2025-08-28 10:06:29.044
52.0, -3017.5289294985123, -4312.598315704614, -12824.330122358166, -13664.704341901466, 0.0, 0.04800000227987766, 0.9760000463575125, 0.0, 0.0, 0.0, 0.0, 0.0, 1.7563863890442388E9, 0.0, 2025-08-28 10:06:29.044
53.0, -2958.6105455965735, -4523.319238808006, -12694.480795896612, -13568.794607537799, 0.0, 0.04800000227987766, 0.9760000463575125, 0.0, 0.0, 0.0, 0.0, 0.0, 1.756386389059914E9, 0.0, 2025-08-28 10:06:29.059
53.0, -2795.8800187245943, -4479.405333528295, -12638.898402755149, -13526.84040983487, 0.0, 0.04800000227987766, 0.9760000463575125, 0.0, 0.0, 0.0, 0.0, 0.0, 1.756386389059914E9, 0.0, 2025-08-28 10:06:29.059
54.0, -2944.6906379614957, -4723.4955139863305, -12640.454201136716, -13498.351721922401, 0.0, 0.04800000227987766, 0.9760000463575125, 0.0, 0.0, 0.0, 0.0, 0.0, 1.7563863890606492E9, 0.0, 2025-08-28 10:06:29.060
54.0, -3032.9634966156445, -4479.910220022313, -12401.842974113766, -13698.387750852387, 0.0, 0.04800000227987766, 0.9760000463575125, 0.0, 0.0, 0.0, 0.0, 0.0, 1.7563863890606492E9, 0.0, 2025-08-28 10:06:29.060
55.0, -2831.82419719873, -4558.406980192289, -12288.636202455033, -13616.461502423044, 0.0, 0.04800000227987766, 0.9760000463575125, 0.0, 0.0, 0.0, 0.0, 0.0, 1.7563863890742376E9, 0.0, 2025-08-28 10:06:29.074
55.0, -2849.7270982866175, -4757.730558180716, -12398.510723253246, -13712.318878187332, 0.0, 0.04800000227987766, 0.9760000463575125, 0.0, 0.0, 0.0, 0.0, 0.0, 1.7563863890742376E9, 0.0, 2025-08-28 10:06:29.074
56.0, -3070.684127568733, -4869.69568305416, -12439.058718572836, -13761.921171299648, 0.0, 0.04800000227987766, 0.9760000463575125, 0.0, 0.0, 0.0, 0.0, 0.0, 1.7563863890899E9, 0.0, 2025-08-28 10:06:29.089
56.0, -2881.187136713881, -5105.657190958504, -12484.444274485111, -13803.69024395477, 0.0, 0.04800000227987766, 0.9760000463575125, 0.0, 0.0, 0.0, 0.0, 0.0, 1.7563863890899E9, 0.0, 2025-08-28 10:06:29.089
57.0, -2799.743335378822, -4863.177037431393, -12679.407129125204, -14036.650482144672, 0.0, 0.04800000227987766, 0.9760000463575125, 0.0, 0.0, 0.0, 0.0, 0.0, 1.7563863890906591E9, 0.0, 2025-08-28 10:06:29.090
57.0, -3041.037940619979, -4791.812266476918, -12838.405235841405, -14178.362771265674, 0.0, 0.04800000227987766, 0.9760000463575125, 0.0, 0.0, 0.0, 0.0, 0.0, 1.7563863890906591E9, 0.0, 2025-08-28 10:06:29.090
58.0, -2981.375316626858, -4567.524856284261, -12735.81230025692, -14067.657992677297, 0.0, 0.04800000227987766, 0.9760000463575125, 0.0, 0.0, 0.0, 0.0, 0.0, 1.7563863891042202E9, 0.0, 2025-08-28 10:06:29.104
58.0, -2797.6863904031925, -4490.875606692396, -12656.343166098464, -14016.559739582706, 0.0, 0.04800000227987766, 0.9760000463575125, 0.0, 0.0, 0.0, 0.0, 0.0, 1.7563863891042202E9, 0.0, 2025-08-28 10:06:29.104
59.0, -2947.196370931808, -4727.022239644546, -12644.05198489409, -13975.381571120583, 0.0, 0.04800000227987766, 0.9760000463575125, 0.0, 0.0, 0.0, 0.0, 0.0, 1.7563863891198916E9, 0.0, 2025-08-28 10:06:29.119
59.0, -3043.9363630856387, -4490.972844091244, -12403.683004891966, -13740.244711156469, 0.0, 0.04800000227987766, 0.9760000463575125, 0.0, 0.0, 0.0, 0.0, 0.0, 1.7563863891198916E9, 0.0, 2025-08-28 10:06:29.119
60.0, -2833.7951244753785, -4525.222847885452, -12266.855025113095, -13630.837677852716, 0.0, 0.04800000227987766, 0.9760000463575125, 0.0, 0.0, 0.0, 0.0, 0.0, 1.7563863891206198E9, 0.0, 2025-08-28 10:06:29.120
60.0, -2853.4931775419973, -4732.127203084063, -12397.17931886902, -13747.013930076268, 0.0, 0.04800000227987766, 0.9760000463575125, 0.0, 0.0, 0.0, 0.0, 0.0, 1.7563863891206198E9, 0.0, 2025-08-28 10:06:29.120
61.0, -3067.041465011891, -4890.553105107043, -12445.996232990641, -13768.798847318161, 0.0, 0.04800000227987766, 0.9760000463575125, 0.0, 0.0, 0.0, 0.0, 0.0, 1.7563863891342435E9, 0.0, 2025-08-28 10:06:29.134
61.0, -2878.8309997417964, -5023.674844029825, -12461.578526156023, -13791.644026197493, 0.0, 0.04800000227987766, 0.9760000463575125, 0.0, 0.0, 0.0, 0.0, 0.0, 1.7563863891342435E9, 0.0, 2025-08-28 10:06:29.134
62.0, -2795.90993792424, -4802.680415748153, -12678.404835937079, -13569.475269329734, 0.0, 0.04800000227987766, 0.9760000463575125, 0.0, 0.0, 0.0, 0.0, 0.0, 1.756386389149902E9, 0.0, 2025-08-28 10:06:29.149
62.0, -3027.6229194789194, -4826.750411862973, -12831.183489026967, -13659.906050258316, 0.0, 0.04800000227987766, 0.9760000463575125, 0.0, 0.0, 0.0, 0.0, 0.0, 1.756386389149902E9, 0.0, 2025-08-28 10:06:29.149
63.0, -2972.511753731873, -5034.008187607396, -12712.651099831332, -13580.691229296848, 0.0, 0.04800000227987766, 0.9760000463575125, 0.0, 0.0, 0.0, 0.0, 0.0, 1.7563863891506267E9, 0.0, 2025-08-28 10:06:29.150
63.0, -2795.651884827297, -4956.027533631306, -12629.902073411737, -13523.904588369653, 0.0, 0.04800000227987766, 0.9760000463575125, 0.0, 0.0, 0.0, 0.0, 0.0, 1.7563863891506267E9, 0.0, 2025-08-28 10:06:29.150
64.0, -2955.4166710344143, -5181.470572910272, -12634.786382753868, -13494.989551862236, 0.0, 0.04800000227987766, 0.9760000463575125, 0.0, 0.0, 0.0, 0.0, 0.0, 1.7563863891642213E9, 0.0, 2025-08-28 10:06:29.164
64.0, -3052.4446354848333, -4963.885063438211, -12409.246106076054, -13738.322402579244, 0.0, 0.04800000227987766, 0.9760000463575125, 0.0, 0.0, 0.0, 0.0, 0.0, 1.7563863891642213E9, 0.0, 2025-08-28 10:06:29.164
65.0, -2841.544197183568, -5052.397275689524, -12303.133924633265, -13648.531144543085, 0.0, 0.04800000227987766, 0.9760000463575125, 0.0, 0.0, 0.0, 0.0, 0.0, 1.7563863891799667E9, 0.0, 2025-08-28 10:06:29.179
65.0, -2865.049468405079, -5273.04950312525, -12405.334170722403, -13762.261502195615, 0.0, 0.04800000227987766, 0.9760000463575125, 0.0, 0.0, 0.0, 0.0, 0.0, 1.7563863891799667E9, 0.0, 2025-08-28 10:06:29.179
66.0, -3075.377702013124, -5396.709295160137, -12442.826667778194, -13766.64840484364, 0.0, 0.04800000227987766, 0.9760000463575125, 0.0, 0.0, 0.0, 0.0, 0.0, 1.7563863891806948E9, 0.0, 2025-08-28 10:06:29.180
66.0, -2880.633631520439, -5514.68069936242, -12478.955971300136, -13801.820293976925, 0.0, 0.04800000227987766, 0.9760000463575125, 0.0, 0.0, 0.0, 0.0, 0.0, 1.7563863891806948E9, 0.0, 2025-08-28 10:06:29.180
67.0, -2806.168483502697, -5357.619860823266, -12704.963735472411, -13571.16196420975, 0.0, 0.04800000227987766, 0.9760000463575125, 0.0, 0.0, 0.0, 0.0, 0.0, 1.7563863891942165E9, 0.0, 2025-08-28 10:06:29.194
67.0, -3038.5957859489135, -5263.572596637532, -12848.295401274227, -13678.0370852435, 0.0, 0.04800000227987766, 0.9760000463575125, 0.0, 0.0, 0.0, 0.0, 0.0, 1.7563863891942165E9, 0.0, 2025-08-28 10:06:29.194
68.0, -2977.698994970415, -5493.1650549173355, -12743.327629217878, -13598.380956087261, 0.0, 0.04800000227987766, 0.9760000463575125, 0.0, 0.0, 0.0, 0.0, 0.0, 1.756386389209638E9, 0.0, 2025-08-28 10:06:29.209
68.0, -2811.187429243233, -5463.653504366986, -12673.574755144306, -13521.006165903993, 0.0, 0.04800000227987766, 0.9760000463575125, 0.0, 0.0, 0.0, 0.0, 0.0, 1.756386389209638E9, 0.0, 2025-08-28 10:06:29.209
69.0, -2952.342473270837, -5701.591549397912, -12674.988437327556, -13492.02755109733, 0.0, 0.04800000227987766, 0.9760000463575125, 0.0, 0.0, 0.0, 0.0, 0.0, 1.7563863892248888E9, 0.0, 2025-08-28 10:06:29.224
69.0, -3061.397955978755, -5492.162761729211, -12452.65325491177, -13280.665235151537, 0.0, 0.04800000227987766, 0.9760000463575125, 0.0, 0.0, 0.0, 0.0, 0.0, 1.7563863892248888E9, 0.0, 2025-08-28 10:06:29.224
70.0, -2837.766898228321, -5555.4942275788635, -12292.14422861347, -13154.92231884133, 0.0, 0.04800000227987766, 0.9760000463575125, 0.0, 0.0, 0.0, 0.0, 0.0, 1.7563863892256463E9, 0.0, 2025-08-28 10:06:29.225
70.0, -2859.8846665662713, -5733.721029917244, -12405.534255370032, -13276.319471403025, 0.0, 0.04800000227987766, 0.9760000463575125, 0.0, 0.0, 0.0, 0.0, 0.0, 1.7563863892256463E9, 0.0, 2025-08-28 10:06:29.225
71.0, -3085.6549470913596, -5863.9555660742335, -12481.472923970316, -13323.434731044807, 0.0, 0.04800000227987766, 0.9760000463575125, 0.0, 0.0, 0.0, 0.0, 0.0, 1.756386389239915E9, 0.0, 2025-08-28 10:06:29.239
71.0, -2898.6449897070415, -6032.015450383071, -12529.409091652371, -13374.762987986673, 0.0, 0.04800000227987766, 0.9760000463575125, 0.0, 0.0, 0.0, 0.0, 0.0, 1.756386389239915E9, 0.0, 2025-08-28 10:06:29.239
72.0, -2818.712107954081, -5850.536805033218, -12743.254701168742, -13598.253799488768, 0.0, 0.04800000227987766, 0.9760000463575125, 0.0, 0.0, 0.0, 0.0, 0.0, 1.756386389240688E9, 0.0, 2025-08-28 10:06:29.240
72.0, -3040.9594027209096, -5790.814342640806, -12869.225751376245, -13712.466604235582, 0.0, 0.04800000227987766, 0.9760000463575125, 0.0, 0.0, 0.0, 0.0, 0.0, 1.756386389240688E9, 0.0, 2025-08-28 10:06:29.240
73.0, -2973.558925719466, -5996.778113000561, -12729.708783529233, -13600.02277216781, 0.0, 0.04800000227987766, 0.9760000463575125, 0.0, 0.0, 0.0, 0.0, 0.0, 1.7563863892542417E9, 0.0, 2025-08-28 10:06:29.254
73.0, -2806.9463826934807, -5944.505531319883, -12647.632939101662, -13504.195315603167, 0.0, 0.04800000227987766, 0.9760000463575125, 0.0, 0.0, 0.0, 0.0, 0.0, 1.7563863892542417E9, 0.0, 2025-08-28 10:06:29.254
74.0, -2943.164758779574, -5703.618575173896, -12636.51982638333, -13479.076277550776, 0.0, 0.04800000227987766, 0.9760000463575125, 0.0, 0.0, 0.0, 0.0, 0.0, 1.756386389269937E9, 0.0, 2025-08-28 10:06:29.269
74.0, -3056.8689371324144, -5909.249494437594, -12425.037833638955, -13263.027866960503, 0.0, 0.04800000227987766, 0.9760000463575125, 0.0, 0.0, 0.0, 0.0, 0.0, 1.756386389269937E9, 0.0, 2025-08-28 10:06:29.269
75.0, -2857.3377946964465, -5994.706208425108, -12312.601481371094, -13188.701095241122, 0.0, 0.04800000227987766, 0.9760000463575125, 0.0, 0.0, 0.0, 0.0, 0.0, 1.7563863892706792E9, 0.0, 2025-08-28 10:06:29.270
75.0, -2863.3590336251073, -6202.597897212021, -12421.862658576574, -13289.315623749048, 0.0, 0.04800000227987766, 0.9760000463575125, 0.0, 0.0, 0.0, 0.0, 0.0, 1.7563863892706792E9, 0.0, 2025-08-28 10:06:29.270
76.0, -3079.8917612596415, -6337.144538017921, -12473.806129061151, -13324.612799530849, 0.0, 0.04800000227987766, 0.9760000463575125, 0.0, 0.0, 0.0, 0.0, 0.0, 1.7563863892842405E9, 0.0, 2025-08-28 10:06:29.284
76.0, -2901.5284525728785, -6510.22710796725, -12534.816986988299, -13388.428582424764, 0.0, 0.04800000227987766, 0.9760000463575125, 0.0, 0.0, 0.0, 0.0, 0.0, 1.7563863892842405E9, 0.0, 2025-08-28 10:06:29.284
77.0, -2810.1327774557285, -6308.470725057647, -12738.57982622413, -13619.833022233099, 0.0, 0.04800000227987766, 0.9760000463575125, 0.0, 0.0, 0.0, 0.0, 0.0, 1.7563863892999387E9, 0.0, 2025-08-28 10:06:29.299
77.0, -3042.571299601812, -6293.342829736881, -12855.526497838553, -13721.947250623256, 0.0, 0.04800000227987766, 0.9760000463575125, 0.0, 0.0, 0.0, 0.0, 0.0, 1.7563863892999387E9, 0.0, 2025-08-28 10:06:29.299
78.0, -2982.317771415692, -6505.623291121796, -12761.355816954281, -13620.790436621755, 0.0, 0.04800000227987766, 0.9760000463575125, 0.0, 0.0, 0.0, 0.0, 0.0, 1.7563863893006835E9, 0.0, 2025-08-28 10:06:29.300
78.0, -2804.1003188272007, -6472.764530111104, -12687.11506293388, -13563.00524240639, 0.0, 0.04800000227987766, 0.9760000463575125, 0.0, 0.0, 0.0, 0.0, 0.0, 1.7563863893006835E9, 0.0, 2025-08-28 10:06:29.300
79.0, -2960.65253097238, -6699.759627871681, -12674.808922129683, -13532.65408431599, 0.0, 0.04800000227987766, 0.9760000463575125, 0.0, 0.0, 0.0, 0.0, 0.0, 1.756386389314236E9, 0.0, 2025-08-28 10:06:29.314
79.0, -3058.2078213165514, -6455.710586313158, -12445.61476319516, -13772.407850775402, 0.0, 0.04800000227987766, 0.9760000463575125, 0.0, 0.0, 0.0, 0.0, 0.0, 1.756386389314236E9, 0.0, 2025-08-28 10:06:29.314
80.0, -2838.9935854137875, -6551.5043837782, -12303.109615283553, -13658.337162226904, 0.0, 0.04800000227987766, 0.9760000463575125, 0.0, 0.0, 0.0, 0.0, 0.0, 1.756386389329937E9, 0.0, 2025-08-28 10:06:29.329
80.0, -2857.139579998795, -6704.1315709198825, -12408.795448131394, -13764.580240168143, 0.0, 0.04800000227987766, 0.9760000463575125, 0.0, 0.0, 0.0, 0.0, 0.0, 1.756386389329937E9, 0.0, 2025-08-28 10:06:29.329
81.0, -3072.598956346046, -6856.678350212518, -12475.287129443604, -13781.3125525699, 0.0, 0.04800000227987766, 0.9760000463575125, 0.0, 0.0, 0.0, 0.0, 0.0, 1.7563863893306613E9, 0.0, 2025-08-28 10:06:29.330
81.0, -2889.3251590174623, -7012.273147969041, -12494.661681164056, -13817.830805687234, 0.0, 0.04800000227987766, 0.9760000463575125, 0.0, 0.0, 0.0, 0.0, 0.0, 1.7563863893306613E9, 0.0, 2025-08-28 10:06:29.330
82.0, -2808.401203776244, -6795.220574240666, -12708.110861285124, -14062.339854940306, 0.0, 0.04800000227987766, 0.9760000463575125, 0.0, 0.0, 0.0, 0.0, 0.0, 1.7563863893442447E9, 0.0, 2025-08-28 10:06:29.344
82.0, -3021.7325770487078, -6772.9606897044, -12848.372069223318, -14171.414037148003, 0.0, 0.04800000227987766, 0.9760000463575125, 0.0, 0.0, 0.0, 0.0, 0.0, 1.7563863893442447E9, 0.0, 2025-08-28 10:06:29.344
83.0, -2976.5919845835306, -6979.1488540614955, -12739.04731371859, -14079.483556337189, 0.0, 0.04800000227987766, 0.9760000463575125, 0.0, 0.0, 0.0, 0.0, 0.0, 1.756386389359925E9, 0.0, 2025-08-28 10:06:29.359
83.0, -2804.1526774265803, -6920.9447910510935, -12660.745028346311, -14029.088404434267, 0.0, 0.04800000227987766, 0.9760000463575125, 0.0, 0.0, 0.0, 0.0, 0.0, 1.756386389359925E9, 0.0, 2025-08-28 10:06:29.359
84.0, -2955.4615498338826, -6700.126138067339, -12644.16418189276, -13993.291952008381, 0.0, 0.04800000227987766, 0.9760000463575125, 0.0, 0.0, 0.0, 0.0, 0.0, 1.7563863893606727E9, 0.0, 2025-08-28 10:06:29.360
84.0, -3058.0507455184124, -6474.540982590057, -12428.882450793404, -13776.237508330029, 0.0, 0.04800000227987766, 0.9760000463575125, 0.0, 0.0, 0.0, 0.0, 0.0, 1.7563863893606727E9, 0.0, 2025-08-28 10:06:29.360
85.0, -2843.862935156096, -6510.5711787631735, -12276.474047799129, -13654.286850574892, 0.0, 0.04800000227987766, 0.9760000463575125, 0.0, 0.0, 0.0, 0.0, 0.0, 1.7563863893742173E9, 0.0, 2025-08-28 10:06:29.374
85.0, -2860.1352398633026, -6730.972832901869, -12405.470677070785, -13751.079201328102, 0.0, 0.04800000227987766, 0.9760000463575125, 0.0, 0.0, 0.0, 0.0, 0.0, 1.7563863893742173E9, 0.0, 2025-08-28 10:06:29.374
86.0, -3091.6874057198875, -6867.273486786988, -12474.09410135774, -13819.848481713329, 0.0, 0.04800000227987766, 0.9760000463575125, 0.0, 0.0, 0.0, 0.0, 0.0, 1.756386389389996E9, 0.0, 2025-08-28 10:06:29.389
86.0, -2907.63570920052, -7038.246753161307, -12535.490168980323, -13900.314299209975, 0.0, 0.04800000227987766, 0.9760000463575125, 0.0, 0.0, 0.0, 0.0, 0.0, 1.756386389389996E9, 0.0, 2025-08-28 10:06:29.389
87.0, -2823.0952707021497, -6826.186945873778, -12734.219102875795, -14122.698100325186, 0.0, 0.04800000227987766, 0.9760000463575125, 0.0, 0.0, 0.0, 0.0, 0.0, 1.7563863893906584E9, 0.0, 2025-08-28 10:06:29.390
87.0, -3036.8941314690746, -6759.747623160947, -12891.672630910296, -14247.984748840798, 0.0, 0.04800000227987766, 0.9760000463575125, 0.0, 0.0, 0.0, 0.0, 0.0, 1.7563863893906584E9, 0.0, 2025-08-28 10:06:29.390
88.0, -2994.3490295731463, -6984.627807496581, -12804.256209346, -14146.872813638765, 0.0, 0.04800000227987766, 0.9760000463575125, 0.0, 0.0, 0.0, 0.0, 0.0, 1.7563863894042668E9, 0.0, 2025-08-28 10:06:29.404
88.0, -2814.5196801037528, -6955.228453944903, -12720.710584235843, -14080.526988424826, 0.0, 0.04800000227987766, 0.9760000463575125, 0.0, 0.0, 0.0, 0.0, 0.0, 1.7563863894042668E9, 0.0, 2025-08-28 10:06:29.404
89.0, -2949.111199709121, -7159.56723777391, -12693.669237606227, -14019.101001602598, 0.0, 0.04800000227987766, 0.9760000463575125, 0.0, 0.0, 0.0, 0.0, 0.0, 1.7563863894199395E9, 0.0, 2025-08-28 10:06:29.419
89.0, -3057.6169171235524, -6946.821158844512, -12468.858241419774, -13790.9091358562, 0.0, 0.04800000227987766, 0.9760000463575125, 0.0, 0.0, 0.0, 0.0, 0.0, 1.7563863894199395E9, 0.0, 2025-08-28 10:06:29.419
90.0, -2832.5908766896464, -6990.1366801313125, -12331.940504041966, -13697.063826268073, 0.0, 0.04800000227987766, 0.9760000463575125, 0.0, 0.0, 0.0, 0.0, 0.0, 1.756386389420688E9, 0.0, 2025-08-28 10:06:29.420
90.0, -2866.2649358906783, -7226.444128781557, -12462.051623500418, -13827.459178123157, 0.0, 0.04800000227987766, 0.9760000463575125, 0.0, 0.0, 0.0, 0.0, 0.0, 1.756386389420688E9, 0.0, 2025-08-28 10:06:29.420
91.0, -3084.6900529027916, -7354.296348666772, -12544.370561425108, -13865.045172677841, 0.0, 0.04800000227987766, 0.9760000463575125, 0.0, 0.0, 0.0, 0.0, 0.0, 1.7563863894342678E9, 0.0, 2025-08-28 10:06:29.434
91.0, -2916.17390079936, -7514.966190663166, -12613.740095753223, -13951.99971659761, 0.0, 0.04800000227987766, 0.9760000463575125, 0.0, 0.0, 0.0, 0.0, 0.0, 1.7563863894342678E9, 0.0, 2025-08-28 10:06:29.434
92.0, -2822.6128236078657, -7335.432293290272, -12772.968206316698, -14150.003109901678, 0.0, 0.04800000227987766, 0.9760000463575125, 0.0, 0.0, 0.0, 0.0, 0.0, 1.7563863894499364E9, 0.0, 2025-08-28 10:06:29.449
92.0, -3045.6417574654333, -7244.261012170464, -12932.011191832367, -14259.570958903525, 0.0, 0.04800000227987766, 0.9760000463575125, 0.0, 0.0, 0.0, 0.0, 0.0, 1.7563863894499364E9, 0.0, 2025-08-28 10:06:29.449
93.0, -2979.9691142435186, -7483.091023340821, -12801.00249638455, -14145.990197249223, 0.0, 0.04800000227987766, 0.9760000463575125, 0.0, 0.0, 0.0, 0.0, 0.0, 1.756386389450704E9, 0.0, 2025-08-28 10:06:29.450
93.0, -2816.9132160753943, -7424.329715237021, -12723.519249102566, -14103.575991851743, 0.0, 0.04800000227987766, 0.9760000463575125, 0.0, 0.0, 0.0, 0.0, 0.0, 1.756386389450704E9, 0.0, 2025-08-28 10:06:29.450
94.0, -2968.409083480481, -7214.973855617456, -12709.593731617555, -14059.895830319263, 0.0, 0.04800000227987766, 0.9760000463575125, 0.0, 0.0, 0.0, 0.0, 0.0, 1.7563863894642751E9, 0.0, 2025-08-28 10:06:29.464
94.0, -3071.2563322619535, -7411.8945478843525, -12497.262781583238, -13821.740871090908, 0.0, 0.04800000227987766, 0.9760000463575125, 0.0, 0.0, 0.0, 0.0, 0.0, 1.7563863894642751E9, 0.0, 2025-08-28 10:06:29.464
95.0, -2857.188198698219, -7488.783151073381, -12358.695748324972, -13715.80072504608, 0.0, 0.04800000227987766, 0.9760000463575125, 0.0, 0.0, 0.0, 0.0, 0.0, 1.7563863894799373E9, 0.0, 2025-08-28 10:06:29.479
95.0, -2866.9717769823037, -7688.9743858515285, -12471.977317982819, -13822.122340886388, 0.0, 0.04800000227987766, 0.9760000463575125, 0.0, 0.0, 0.0, 0.0, 0.0, 1.7563863894799373E9, 0.0, 2025-08-28 10:06:29.479
96.0, -3089.1068747504614, -7837.414754992817, -12545.301796514075, -13885.356569337193, 0.0, 0.04800000227987766, 0.9760000463575125, 0.0, 0.0, 0.0, 0.0, 0.0, 1.7563863894806583E9, 0.0, 2025-08-28 10:06:29.480
96.0, -2916.0392644009553, -7991.008706273045, -12592.594701403752, -13938.734291454777, 0.0, 0.04800000227987766, 0.9760000463575125, 0.0, 0.0, 0.0, 0.0, 0.0, 1.7563863894806583E9, 0.0, 2025-08-28 10:06:29.480
97.0, -2817.074031773489, -7801.881965513807, -12773.581549909431, -14119.904395058285, 0.0, 0.04800000227987766, 0.9760000463575125, 0.0, 0.0, 0.0, 0.0, 0.0, 1.7563863894942625E9, 0.0, 2025-08-28 10:06:29.494
97.0, -3049.5013342197053, -7760.817864000332, -12940.657840529922, -14266.691728419159, 0.0, 0.04800000227987766, 0.9760000463575125, 0.0, 0.0, 0.0, 0.0, 0.0, 1.7563863894942625E9, 0.0, 2025-08-28 10:06:29.494
98.0, -2987.576070753392, -7980.039579703007, -12837.301965354476, -14168.63155158097, 0.0, 0.04800000227987766, 0.9760000463575125, 0.0, 0.0, 0.0, 0.0, 0.0, 1.7563863895099454E9, 0.0, 2025-08-28 10:06:29.509
98.0, -2824.8231044816785, -7960.835193430539, -12735.943196755368, -14101.717261573765, 0.0, 0.04800000227987766, 0.9760000463575125, 0.0, 0.0, 0.0, 0.0, 0.0, 1.7563863895099454E9, 0.0, 2025-08-28 10:06:29.509
99.0, -2957.8289065058343, -8159.470629827119, -12712.447275283746, -14050.06737323571, 0.0, 0.04800000227987766, 0.9760000463575125, 0.0, 0.0, 0.0, 0.0, 0.0, 1.756386389510651E9, 0.0, 2025-08-28 10:06:29.510
99.0, -3059.838417697232, -7933.780757151078, -12471.625767386984, -13806.11930897599, 0.0, 0.04800000227987766, 0.9760000463575125, 0.0, 0.0, 0.0, 0.0, 0.0, 1.756386389510651E9, 0.0, 2025-08-28 10:06:29.510
100.0, -2843.5151244602166, -7995.735939817037, -12340.381458241958, -13700.3025796297, 0.0, 0.04800000227987766, 0.9760000463575125, 0.0, 0.0, 0.0, 0.0, 0.0, 1.7563863895249484E9, 0.0, 2025-08-28 10:06:29.524
100.0, -2860.2212575622834, -8161.288221205585, -12439.660842465702, -13809.500178535935, 0.0, 0.04800000227987766, 0.9760000463575125, 0.0, 0.0, 0.0, 0.0, 0.0, 1.7563863895249484E9, 0.0, 2025-08-28 10:06:29.524
0.0, -3079.8786716097966, -16.29661405691877, -12496.870092087891, -11868.088192337658, 0.0, 0.04800000227987766, 0.9760000463575125, 0.0, 0.0, 0.0, 0.0, 0.0, 1.756386389525659E9, 0.0, 2025-08-28 10:06:29.525
1.0, -2910.2629889193922, -174.9917888767086, -12592.890153500251, -11970.61567967292, 0.0, 0.04800000227987766, 0.9760000463575125, 0.0, 0.0, 0.0, 0.0, 0.0, 1.7563863895396461E9, 0.0, 2025-08-28 10:06:29.539
1.0, -2812.2813499802724, 34.12845704564825, -12760.37596316589, -12157.889300004113, 0.0, 0.04800000227987766, 0.9760000463575125, 0.0, 0.0, 0.0, 0.0, 0.0, 1.7563863895396461E9, 0.0, 2025-08-28 10:06:29.539
2.0, -3034.9325539423153, 122.73790669580922, -12899.481542017777, -12256.93307053065, 0.0, 0.04800000227987766, 0.9760000463575125, 0.0, 0.0, 0.0, 0.0, 0.0, 1.7563863895549285E9, 0.0, 2025-08-28 10:06:29.554
2.0, -2982.7796490602195, 352.55662892293185, -12806.4253513203, -12169.131439270917, 0.0, 0.04800000227987766, 0.9760000463575125, 0.0, 0.0, 0.0, 0.0, 0.0, 1.7563863895549285E9, 0.0, 2025-08-28 10:06:29.554
3.0, -2814.491630854085, 388.6952821947634, -12717.883219869342, -12120.19858825067, 0.0, 0.04800000227987766, 0.9760000463575125, 0.0, 0.0, 0.0, 0.0, 0.0, 1.756386389555666E9, 0.0, 2025-08-28 10:06:29.555
3.0, -2946.663435188122, 188.63494391506538, -12693.583219907247, -12096.942020376213, 0.0, 0.04800000227987766, 0.9760000463575125, 0.0, 0.0, 0.0, 0.0, 0.0, 1.756386389555666E9, 0.0, 2025-08-28 10:06:29.555
4.0, -3059.335401153192, 416.8193298615515, -12496.365205593873, -11876.379550539423, 0.0, 0.04800000227987766, 0.9760000463575125, 0.0, 0.0, 0.0, 0.0, 0.0, 1.7563863895692596E9, 0.0, 2025-08-28 10:06:29.569
4.0, -2849.64669043757, 295.7400687960908, -12342.457102717366, -11744.17782700574, 0.0, 0.04800000227987766, 0.9760000463575125, 0.0, 0.0, 0.0, 0.0, 0.0, 1.7563863895692596E9, 0.0, 2025-08-28 10:06:29.569
5.0, -2867.874962821603, 148.67411288851872, -12461.617795105558, -11874.072032266762, 0.0, 0.04800000227987766, 0.9760000463575125, 0.0, 0.0, 0.0, 0.0, 0.0, 1.7563863895849085E9, 0.0, 2025-08-28 10:06:29.584
5.0, -3094.8569709323347, 13.663724488113075, -12549.542843063828, -11924.58312106831, 0.0, 0.04800000227987766, 0.9760000463575125, 0.0, 0.0, 0.0, 0.0, 0.0, 1.7563863895849085E9, 0.0, 2025-08-28 10:06:29.584
6.0, -2922.6719769723713, -162.14897242886946, -12600.736463607289, -11950.143467315473, 0.0, 0.04800000227987766, 0.9760000463575125, 0.0, 0.0, 0.0, 0.0, 0.0, 1.75638638958566E9, 0.0, 2025-08-28 10:06:29.585
6.0, -2825.5430352231488, 67.937152645085, -12782.665766901802, -12176.536441183183, 0.0, 0.04800000227987766, 0.9760000463575125, 0.0, 0.0, 0.0, 0.0, 0.0, 1.75638638958566E9, 0.0, 2025-08-28 10:06:29.585
7.0, -3060.8500606352463, 116.20430147321895, -12920.410022169817, -12320.881619872991, 0.0, 0.04800000227987766, 0.9760000463575125, 0.0, 0.0, 0.0, 0.0, 0.0, 1.756386389599259E9, 0.0, 2025-08-28 10:06:29.599
7.0, -2992.5856667440385, -98.74644848005846, -12811.59763295902, -12180.665290734265, 0.0, 0.04800000227987766, 0.9760000463575125, 0.0, 0.0, 0.0, 0.0, 0.0, 1.756386389599259E9, 0.0, 2025-08-28 10:06:29.599
8.0, -2824.89977243077, -81.18761818809435, -12727.913631550502, -12135.027291574981, 0.0, 0.04800000227987766, 0.9760000463575125, 0.0, 0.0, 0.0, 0.0, 0.0, 1.7563863896149187E9, 0.0, 2025-08-28 10:06:29.614
8.0, -2970.8643278013915, 156.56904169498011, -12724.968460335396, -12120.331354699098, 0.0, 0.04800000227987766, 0.9760000463575125, 0.0, 0.0, 0.0, 0.0, 0.0, 1.7563863896149187E9, 0.0, 2025-08-28 10:06:29.614
9.0, -3076.1163322543725, 392.9251090446487, -12508.08979195496, -11888.796018392313, 0.0, 0.04800000227987766, 0.9760000463575125, 0.0, 0.0, 0.0, 0.0, 0.0, 1.7563863896156564E9, 0.0, 2025-08-28 10:06:29.615
9.0, -2871.985112872906, 344.96463201288134, -12382.9676990374, -11773.554741157684, 0.0, 0.04800000227987766, 0.9760000463575125, 0.0, 0.0, 0.0, 0.0, 0.0, 1.7563863896156564E9, 0.0, 2025-08-28 10:06:29.615
10.0, -2885.732985110022, 140.65950728347525, -12491.41357805254, -11868.376164634246, 0.0, 0.04800000227987766, 0.9760000463575125, 0.0, 0.0, 0.0, 0.0, 0.0, 1.7563863896292293E9, 0.0, 2025-08-28 10:06:29.629
10.0, -3096.0873980177566, -6.535475172568113, -12562.221103913616, -11940.425337280612, 0.0, 0.04800000227987766, 0.9760000463575125, 0.0, 0.0, 0.0, 0.0, 0.0, 1.7563863896292293E9, 0.0, 2025-08-28 10:06:29.629
11.0, -2915.985035851598, -118.96808754047379, -12585.141080792062, -11969.796641582623, 0.0, 0.04800000227987766, 0.9760000463575125, 0.0, 0.0, 0.0, 0.0, 0.0, 1.7563863896456308E9, 0.0, 2025-08-28 10:06:29.645
11.0, -2822.6034738579765, 37.24753360869363, -12784.947105874773, -12188.590138740372, 0.0, 0.04800000227987766, 0.9760000463575125, 0.0, 0.0, 0.0, 0.0, 0.0, 1.7563863896456308E9, 0.0, 2025-08-28 10:06:29.645
12.0, -3038.410660901107, 151.4939974551089, -12925.03253851505, -12260.257841591258, 0.0, 0.04800000227987766, 0.9760000463575125, 0.0, 0.0, 0.0, 0.0, 0.0, 1.7563863896464145E9, 0.0, 2025-08-28 10:06:29.646
12.0, -2977.7532235197723, 353.63746001012623, -12818.351892278995, -12163.308415039908, 0.0, 0.04800000227987766, 0.9760000463575125, 0.0, 0.0, 0.0, 0.0, 0.0, 1.7563863896464145E9, 0.0, 2025-08-28 10:06:29.646
13.0, -2820.475470783189, 391.09255806636065, -12735.722542657983, -12122.326591325458, 0.0, 0.04800000227987766, 0.9760000463575125, 0.0, 0.0, 0.0, 0.0, 0.0, 1.756386389659267E9, 0.0, 2025-08-28 10:06:29.659
13.0, -2957.4904455598444, 173.01338180014864, -12719.605443798937, -12086.208507503383, 0.0, 0.04800000227987766, 0.9760000463575125, 0.0, 0.0, 0.0, 0.0, 0.0, 1.756386389659267E9, 0.0, 2025-08-28 10:06:29.659
14.0, -3057.596347673796, -53.579676715191454, -12494.412977817003, -11865.5188810681, 0.0, 0.04800000227987766, 0.9760000463575125, 0.0, 0.0, 0.0, 0.0, 0.0, 1.7563863896746566E9, 0.0, 2025-08-28 10:06:29.674
14.0, -2840.9140240410343, -143.21759885316715, -12336.065613693092, -11713.824798965361, 0.0, 0.04800000227987766, 0.9760000463575125, 0.0, 0.0, 0.0, 0.0, 0.0, 1.7563863896746566E9, 0.0, 2025-08-28 10:06:29.674
15.0, -2855.7427273653448, -334.1151822414249, -12448.718880158383, -11840.15487956861, 0.0, 0.04800000227987766, 0.9760000463575125, 0.0, 0.0, 0.0, 0.0, 0.0, 1.7563863896899223E9, 0.0, 2025-08-28 10:06:29.689
15.0, -3085.144450747408, -464.83964529260993, -12516.295132457744, -11887.625429706182, 0.0, 0.04800000227987766, 0.9760000463575125, 0.0, 0.0, 0.0, 0.0, 0.0, 1.7563863896899223E9, 0.0, 2025-08-28 10:06:29.689
16.0, -2917.8475060295314, -632.1665092101321, -12576.78614429105, -11977.411077892408, 0.0, 0.04800000227987766, 0.9760000463575125, 0.0, 0.0, 0.0, 0.0, 0.0, 1.7563863896906433E9, 0.0, 2025-08-28 10:06:29.690
16.0, -2813.9456054605544, -473.0786448949948, -12749.795786191244, -12180.014548141975, 0.0, 0.04800000227987766, 0.9760000463575125, 0.0, 0.0, 0.0, 0.0, 0.0, 1.7563863896906433E9, 0.0, 2025-08-28 10:06:29.690
17.0, -3045.4715920174494, -349.9349590539932, -12892.663704398554, -12302.054963496048, 0.0, 0.04800000227987766, 0.9760000463575125, 0.0, 0.0, 0.0, 0.0, 0.0, 1.756386389704906E9, 0.0, 2025-08-28 10:06:29.704
17.0, -2993.9694297276437, -131.448133692611, -12795.516063149553, -12202.876556571107, 0.0, 0.04800000227987766, 0.9760000463575125, 0.0, 0.0, 0.0, 0.0, 0.0, 1.756386389704906E9, 0.0, 2025-08-28 10:06:29.704
18.0, -2802.516471195966, -74.96068476187065, -12705.769683912862, -12121.911462430377, 0.0, 0.04800000227987766, 0.9760000463575125, 0.0, 0.0, 0.0, 0.0, 0.0, 1.7563863897056484E9, 0.0, 2025-08-28 10:06:29.705
18.0, -2949.247706057504, -309.342084934935, -12674.569568532519, -12067.864298220724, 0.0, 0.04800000227987766, 0.9760000463575125, 0.0, 0.0, 0.0, 0.0, 0.0, 1.7563863897056484E9, 0.0, 2025-08-28 10:06:29.705
19.0, -3055.086874803528, -553.8604839378968, -12467.141627340112, -11847.215810684953, 0.0, 0.04800000227987766, 0.9760000463575125, 0.0, 0.0, 0.0, 0.0, 0.0, 1.7563863897192311E9, 0.0, 2025-08-28 10:06:29.719
19.0, -2844.7736007953063, -649.4074480058625, -12322.486036953982, -11724.382536540274, 0.0, 0.04800000227987766, 0.9760000463575125, 0.0, 0.0, 0.0, 0.0, 0.0, 1.7563863897192311E9, 0.0, 2025-08-28 10:06:29.719
20.0, -2853.5287065915763, -818.4415762531571, -12423.388537758496, -11836.029769917484, 0.0, 0.04800000227987766, 0.9760000463575125, 0.0, 0.0, 0.0, 0.0, 0.0, 1.7563863897349074E9, 0.0, 2025-08-28 10:06:29.734
20.0, -3082.743434975855, -980.958928827662, -12512.731007799972, -11895.019211918581, 0.0, 0.04800000227987766, 0.9760000463575125, 0.0, 0.0, 0.0, 0.0, 0.0, 1.7563863897349074E9, 0.0, 2025-08-28 10:06:29.734
21.0, -2916.4824425457045, -1135.8394056926481, -12584.868068095297, -11970.746576171368, 0.0, 0.04800000227987766, 0.9760000463575125, 0.0, 0.0, 0.0, 0.0, 0.0, 1.7563863897356343E9, 0.0, 2025-08-28 10:06:29.735
21.0, -2832.0803803456947, -960.3296406720765, -12778.18162685493, -12192.344998295885, 0.0, 0.04800000227987766, 0.9760000463575125, 0.0, 0.0, 0.0, 0.0, 0.0, 1.7563863897356343E9, 0.0, 2025-08-28 10:06:29.735
22.0, -3051.664866344072, -882.20687049767, -12924.632369219791, -12279.716541060712, 0.0, 0.04800000227987766, 0.9760000463575125, 0.0, 0.0, 0.0, 0.0, 0.0, 1.7563863897492304E9, 0.0, 2025-08-28 10:06:29.749
22.0, -2998.3525924757123, -1076.3525569974445, -12816.474462501239, -12203.089730868582, 0.0, 0.04800000227987766, 0.9760000463575125, 0.0, 0.0, 0.0, 0.0, 0.0, 1.7563863897492304E9, 0.0, 2025-08-28 10:06:29.749
23.0, -2817.9510383130983, -1073.2783592338674, -12723.478110203054, -12106.12534471741, 0.0, 0.04800000227987766, 0.9760000463575125, 0.0, 0.0, 0.0, 0.0, 0.0, 1.7563863897649078E9, 0.0, 2025-08-28 10:06:29.764
23.0, -2958.215986151248, -1296.6345343375579, -12692.105959424749, -12079.731000780128, 0.0, 0.04800000227987766, 0.9760000463575125, 0.0, 0.0, 0.0, 0.0, 0.0, 1.7563863897649078E9, 0.0, 2025-08-28 10:06:29.764
24.0, -3072.454970197752, -1084.2736651035957, -12491.249022454489, -11855.604406285565, 0.0, 0.04800000227987766, 0.9760000463575125, 0.0, 0.0, 0.0, 0.0, 0.0, 1.7563863897656283E9, 0.0, 2025-08-28 10:06:29.765
24.0, -2869.7860516989604, -1142.4216296146624, -12367.551831420045, -11770.656318692025, 0.0, 0.04800000227987766, 0.9760000463575125, 0.0, 0.0, 0.0, 0.0, 0.0, 1.7563863897656283E9, 0.0, 2025-08-28 10:06:29.765
25.0, -2888.111561481841, -1328.9584896545857, -12482.486436858308, -11893.983259630855, 0.0, 0.04800000227987766, 0.9760000463575125, 0.0, 0.0, 0.0, 0.0, 0.0, 1.7563863897792404E9, 0.0, 2025-08-28 10:06:29.779
25.0, -3105.88967580162, -1472.851140449755, -12553.634293615352, -11954.547199513298, 0.0, 0.04800000227987766, 0.9760000463575125, 0.0, 0.0, 0.0, 0.0, 0.0, 1.7563863897792404E9, 0.0, 2025-08-28 10:06:29.779
26.0, -2942.766459434293, -1652.8562652170658, -12614.117825648747, -12000.927568813786, 0.0, 0.04800000227987766, 0.9760000463575125, 0.0, 0.0, 0.0, 0.0, 0.0, 1.7563863897949543E9, 0.0, 2025-08-28 10:06:29.794
26.0, -2840.7906073424965, -1432.8416907237843, -12789.775316717569, -12213.666167943273, 0.0, 0.04800000227987766, 0.9760000463575125, 0.0, 0.0, 0.0, 0.0, 0.0, 1.7563863897949543E9, 0.0, 2025-08-28 10:06:29.794
27.0, -3060.793962135911, -1388.232164052315, -12931.693300336134, -12317.384813414421, 0.0, 0.04800000227987766, 0.9760000463575125, 0.0, 0.0, 0.0, 0.0, 0.0, 1.7563863897956324E9, 0.0, 2025-08-28 10:06:29.795
27.0, -3008.8766709510237, -1601.3728024270386, -12840.54445861606, -12221.613455349114, 0.0, 0.04800000227987766, 0.9760000463575125, 0.0, 0.0, 0.0, 0.0, 0.0, 1.7563863897956324E9, 0.0, 2025-08-28 10:06:29.795
28.0, -2838.109099074267, -1543.5427294122055, -12739.080972818192, -12150.267383894417, 0.0, 0.04800000227987766, 0.9760000463575125, 0.0, 0.0, 0.0, 0.0, 0.0, 1.7563863898092265E9, 0.0, 2025-08-28 10:06:29.809
28.0, -2961.6267749108374, -1328.9285704549402, -12721.606290275231, -12095.176787597127, 0.0, 0.04800000227987766, 0.9760000463575125, 0.0, 0.0, 0.0, 0.0, 0.0, 1.7563863898092265E9, 0.0, 2025-08-28 10:06:29.809
29.0, -3063.7671826006845, -1567.6763038262725, -12509.757787335198, -11896.33939660294, 0.0, 0.04800000227987766, 0.9760000463575125, 0.0, 0.0, 0.0, 0.0, 0.0, 1.7563863898249395E9, 0.0, 2025-08-28 10:06:29.824
29.0, -2867.7216269234195, -1622.3312017787248, -12390.009930653963, -11791.19958914863, 0.0, 0.04800000227987766, 0.9760000463575125, 0.0, 0.0, 0.0, 0.0, 0.0, 1.7563863898249395E9, 0.0, 2025-08-28 10:06:29.824
30.0, -2879.670607281849, -1827.8555338936858, -12495.063720409293, -11871.685976095032, 0.0, 0.04800000227987766, 0.9760000463575125, 0.0, 0.0, 0.0, 0.0, 0.0, 1.7563863898256116E9, 0.0, 2025-08-28 10:06:29.825
30.0, -3110.8151240432635, -1979.044729502406, -12588.890330497641, -11957.576518477406, 0.0, 0.04800000227987766, 0.9760000463575125, 0.0, 0.0, 0.0, 0.0, 0.0, 1.7563863898256116E9, 0.0, 2025-08-28 10:06:29.825
31.0, -2931.2475675707683, -2124.145367983263, -12597.778202742338, -12013.912501459941, 0.0, 0.06400000303983688, 0.9760000463575125, 0.0, 0.0, 0.0, 0.0, 0.0, 1.7563863898392348E9, 0.0, 2025-08-28 10:06:29.839
31.0, -2832.630145639181, -1967.0994890439324, -12769.879048953298, -12184.906337284017, 0.0, 0.06400000303983688, 0.9760000463575125, 0.0, 0.0, 0.0, 0.0, 0.0, 1.7563863898392348E9, 0.0, 2025-08-28 10:06:29.839
32.0, -3067.6716381544247, -1883.0863764393143, -12926.771591994446, -12313.45417856099, -0.01600000075995922, 0.06400000303983688, 0.9760000463575125, 0.0, 0.0, 0.0, 0.0, 0.0, 1.7563863898549316E9, 0.0, 2025-08-28 10:06:29.854
32.0, -3028.376509319991, -1645.6719174021855, -12847.26879873639, -12242.833647697698, -0.01600000075995922, 0.06400000303983688, 0.9760000463575125, 0.0, 0.0, 0.0, 0.0, 0.0, 1.7563863898549316E9, 0.0, 2025-08-28 10:06:29.854
33.0, -2863.9854668676853, -1619.7020521098748, -12755.914262518752, -12171.685790940654, -0.01600000075995922, 0.06400000303983688, 0.9760000463575125, 0.0, 0.0, 0.0, 0.0, 0.0, 1.756386389855652E9, 0.0, 2025-08-28 10:06:29.855
33.0, -2996.4789025979117, -1850.2874538279139, -12704.073639282957, -12103.759857995436, -0.01600000075995922, 0.06400000303983688, 0.9760000463575125, 0.0, 0.0, 0.0, 0.0, 0.0, 1.756386389855652E9, 0.0, 2025-08-28 10:06:29.855
34.0, -3099.3934695785865, -1625.8915865365416, -12494.577533415053, -11877.467861426529, -0.01600000075995922, 0.06400000303983688, 0.9760000463575125, 0.0, 0.0, 0.0, 0.0, 0.0, 1.756386389869249E9, 0.0, 2025-08-28 10:06:29.869
34.0, -2891.402673442848, -1696.3625214016065, -12361.122943396214, -11761.362667302135, -0.01600000075995922, 0.06400000303983688, 0.9760000463575125, 0.0, 0.0, 0.0, 0.0, 0.0, 1.756386389869249E9, 0.0, 2025-08-28 10:06:29.869
35.0, -2907.794654948637, -1883.7857377310283, -12465.544690059032, -11855.615625985432, -0.01600000075995922, 0.06400000303983688, 0.9760000463575125, 0.0, 0.0, 0.0, 0.0, 0.0, 1.7563863898849597E9, 0.0, 2025-08-28 10:06:29.884
35.0, -3131.5491293976083, -2053.5846755192615, -12554.887160100508, -11917.795202648733, -0.01600000075995922, 0.06400000303983688, 0.9760000463575125, 0.0, 0.0, 0.0, 0.0, 0.0, 1.7563863898849597E9, 0.0, 2025-08-28 10:06:29.884
36.0, -2948.5520846657455, -2195.8990885331295, -12601.390946099535, -11980.851785851642, -0.01600000075995922, 0.06400000303983688, 0.9760000463575125, 0.0, 0.0, 0.0, 0.0, 0.0, 1.7563863898856847E9, 0.0, 2025-08-28 10:06:29.885
36.0, -2847.440149463713, -1985.0210896315984, -12769.845389853697, -12185.530900576618, -0.01600000075995922, 0.06400000303983688, 0.9760000463575125, 0.0, 0.0, 0.0, 0.0, 0.0, 1.7563863898856847E9, 0.0, 2025-08-28 10:06:29.885
37.0, -3058.722057560459, -1909.5050297263078, -12926.947367292363, -12319.830707985442, -0.01600000075995922, 0.06400000303983688, 0.9760000463575125, 0.0, 0.0, 0.0, 0.0, 0.0, 1.7563863898992317E9, 0.0, 2025-08-28 10:06:29.899
37.0, -3010.4362092325464, -2136.4907777369954, -12822.750014626887, -12222.51851113839, -0.01600000075995922, 0.06400000303983688, 0.9760000463575125, 0.0, 0.0, 0.0, 0.0, 0.0, 1.7563863898992317E9, 0.0, 2025-08-28 10:06:29.899
38.0, -2842.0359940277413, -2138.667399511207, -12725.92026487412, -12151.677326177713, -0.01600000075995922, 0.06400000303983688, 0.9760000463575125, 0.0, 0.0, 0.0, 0.0, 0.0, 1.7563863899149752E9, 0.0, 2025-08-28 10:06:29.914
38.0, -2984.7468364369124, -2334.2211583442986, -12700.090645830147, -12090.438334353268, -0.01600000075995922, 0.06400000303983688, 0.9760000463575125, 0.0, 0.0, 0.0, 0.0, 0.0, 1.7563863899149752E9, 0.0, 2025-08-28 10:06:29.914
39.0, -3089.5276134954765, -2578.515163349919, -12511.642696912866, -11864.995295074303, -0.01600000075995922, 0.06400000303983688, 0.9760000463575125, 0.0, 0.0, 0.0, 0.0, 0.0, 1.7563863899157093E9, 0.0, 2025-08-28 10:06:29.915
39.0, -2864.595070560463, -2611.946129053831, -12352.906383193564, -11765.364360254724, -0.01600000075995922, 0.06400000303983688, 0.9760000463575125, 0.0, 0.0, 0.0, 0.0, 0.0, 1.7563863899157093E9, 0.0, 2025-08-28 10:06:29.915
40.0, -2867.8936623213813, -2820.451161433477, -12449.94556734385, -11882.509246566799, -0.01600000075995922, 0.06400000303983688, 0.9760000463575125, 0.0, 0.0, 0.0, 0.0, 0.0, 1.7563863899292583E9, 0.0, 2025-08-28 10:06:29.929
40.0, -3094.3259051386267, -2962.9637891449966, -12564.461303987075, -11931.786168382969, -0.01600000075995922, 0.06400000303983688, 0.9760000463575125, 0.0, 0.0, 0.0, 0.0, 0.0, 1.7563863899292583E9, 0.0, 2025-08-28 10:06:29.929
41.0, -2927.380511016585, -3109.2200567121617, -12646.232346568257, -12019.825283289887, -0.01600000075995922, 0.06400000303983688, 0.9760000463575125, 0.0, 0.0, 0.0, 0.0, 0.0, 1.7563863899449873E9, 0.0, 2025-08-28 10:06:29.944
41.0, -2830.977109858766, -2911.338210156653, -12822.424643330742, -12218.434540386777, -0.01600000075995922, 0.06400000303983688, 0.9760000463575125, 0.0, 0.0, 0.0, 0.0, 0.0, 1.7563863899449873E9, 0.0, 2025-08-28 10:06:29.944
42.0, -3054.1518998146057, -2842.3557554739527, -12970.102072881069, -12329.150538675021, -0.01600000075995922, 0.06400000303983688, 0.9760000463575125, 0.0, 0.0, 0.0, 0.0, 0.0, 1.7563863899456973E9, 0.0, 2025-08-28 10:06:29.945
42.0, -2998.1431580781937, -2603.385498055257, -12855.533977638464, -12233.162266412284, -0.01600000075995922, 0.06400000303983688, 0.9760000463575125, 0.0, 0.0, 0.0, 0.0, 0.0, 1.7563863899456973E9, 0.0, 2025-08-28 10:06:29.945
43.0, -2835.9436969999224, -2530.068499323912, -12794.854100857396, -12170.373086056206, -0.01600000075995922, 0.06400000303983688, 0.9760000463575125, 0.0, 0.0, 0.0, 0.0, 0.0, 1.7563863899592679E9, 0.0, 2025-08-28 10:06:29.959
43.0, -2958.447859948501, -2721.2203959091567, -12737.575663086027, -12126.995856420137, -0.01600000075995922, 0.06400000303983688, 0.9760000463575125, 0.0, 0.0, 0.0, 0.0, 0.0, 1.7563863899592679E9, 0.0, 2025-08-28 10:06:29.959
44.0, -3080.3648586040363, -2965.925789909903, -12550.20854525594, -11913.352201501373, -0.01600000075995922, 0.06400000303983688, 0.9760000463575125, 0.0, 0.0, 0.0, 0.0, 0.0, 1.7563863899749992E9, 0.0, 2025-08-28 10:06:29.974
44.0, -2858.1811421364546, -3051.434862496797, -12415.542227651458, -11789.583952367771, -0.01600000075995922, 0.06400000303983688, 0.9760000463575125, 0.0, 0.0, 0.0, 0.0, 0.0, 1.7563863899749992E9, 0.0, 2025-08-28 10:06:29.974
45.0, -2869.2325465055183, -3221.729337029159, -12482.11992666265, -11858.53274795087, -0.01600000075995922, 0.06400000303983688, 0.9760000463575125, 0.0, 0.0, 0.0, 0.0, 0.0, 1.7563863899757128E9, 0.0, 2025-08-28 10:06:29.975
45.0, -3091.872530767694, -3383.644565710798, -12551.99621743476, -11908.075202663895, -0.01600000075995922, 0.06400000303983688, 0.9760000463575125, 0.0, 0.0, 0.0, 0.0, 0.0, 1.7563863899757128E9, 0.0, 2025-08-28 10:06:29.975
46.0, -2909.8104610247537, -3583.44124104362, -12618.257894899696, -11982.792793928646, -0.01600000075995922, 0.06400000303983688, 0.9760000463575125, 0.0, 0.0, 0.0, 0.0, 0.0, 1.7563863899894252E9, 0.0, 2025-08-28 10:06:29.989
46.0, -2823.224297250621, -3351.500125591643, -12793.743350570556, -12194.170069474261, -0.01600000075995922, 0.06400000303983688, 0.9760000463575125, 0.0, 0.0, 0.0, 0.0, 0.0, 1.7563863899894252E9, 0.0, 2025-08-28 10:06:29.989
47.0, -3044.2037659324706, -3315.694323415868, -12956.283142544795, -12307.197325935122, -0.01600000075995922, 0.06400000303983688, 0.9760000463575125, 0.0, 0.0, 0.0, 0.0, 0.0, 1.7563863900049849E9, 0.0, 2025-08-28 10:06:30.004
47.0, -2998.9921153681353, -3553.746435395442, -12875.228290805127, -12242.287622304168, -0.01600000075995922, 0.06400000303983688, 0.9760000463575125, 0.0, 0.0, 0.0, 0.0, 0.0, 1.7563863900049849E9, 0.0, 2025-08-28 10:06:30.004
48.0, -2829.843920172192, -3529.5492826821283, -12791.503150497098, -12185.478541977238, -0.01600000075995922, 0.06400000303983688, 0.9760000463575125, 0.0, 0.0, 0.0, 0.0, 0.0, 1.7563863900057356E9, 0.0, 2025-08-28 10:06:30.005
48.0, -2964.7869903733954, -3715.805650225375, -12763.414631879888, -12149.117364658043, -0.01600000075995922, 0.06400000303983688, 0.9760000463575125, 0.0, 0.0, 0.0, 0.0, 0.0, 1.7563863900057356E9, 0.0, 2025-08-28 10:06:30.005
49.0, -3076.314546952024, -3475.1524378266186, -12545.709445609245, -11913.06048930483, -0.01600000075995922, 0.06400000303983688, 0.9760000463575125, 0.0, 0.0, 0.0, 0.0, 0.0, 1.7563863900192635E9, 0.0, 2025-08-28 10:06:30.019
49.0, -2860.0772714139894, -3574.117670454085, -12392.179072628263, -11764.062875070143, -0.01600000075995922, 0.06400000303983688, 0.9760000463575125, 0.0, 0.0, 0.0, 0.0, 0.0, 1.7563863900192635E9, 0.0, 2025-08-28 10:06:30.019
50.0, -2866.6220963364467, -3752.310813692864, -12486.720003608149, -11859.785614436027, -0.01600000075995922, 0.06400000303983688, 0.9760000463575125, 0.0, 0.0, 0.0, 0.0, 0.0, 1.7563863900349767E9, 0.0, 2025-08-28 10:06:30.034
50.0, -3076.209829753265, -3866.7629720368423, -12542.145320951473, -11907.383321172092, -0.01600000075995922, 0.06400000303983688, 0.9760000463575125, 0.0, 0.0, 0.0, 0.0, 0.0, 1.7563863900349767E9, 0.0, 2025-08-28 10:06:30.034
51.0, -2922.1521308785304, -4030.944580091629, -12606.854939934798, -11992.138803917915, -0.01600000075995922, 0.06400000303983688, 0.9760000463575125, 0.0, 0.0, 0.0, 0.0, 0.0, 1.7563863900356991E9, 0.0, 2025-08-28 10:06:30.035
51.0, -2812.7600571746007, -3862.3685895889066, -12765.638002403546, -12177.280681274366, -0.01600000075995922, 0.06400000303983688, 0.9760000463575125, 0.0, 0.0, 0.0, 0.0, 0.0, 1.7563863900356991E9, 0.0, 2025-08-28 10:06:30.035
52.0, -3037.374708613381, -3792.825149912853, -12905.914169941563, -12306.868214739021, 0.0, 0.06400000303983688, 0.9760000463575125, 0.0, 0.0, 0.0, 0.0, 0.0, 1.756386390065608E9, 0.0, 2025-08-28 10:06:30.065
52.0, -2997.477455886081, -4011.4634412224405, -12838.99987993436, -12248.050808135886, 0.0, 0.06400000303983688, 0.9760000463575125, 0.0, 0.0, 0.0, 0.0, 0.0, 1.756386390065608E9, 0.0, 2025-08-28 10:06:30.065
53.0, -2814.562688953243, -4024.9233411629684, -12715.8187950938, -12148.116941419896, 0.0, 0.06400000303983688, 0.9760000463575125, 0.0, 0.0, 0.0, 0.0, 0.0, 1.756386390066376E9, 0.0, 2025-08-28 10:06:30.066
53.0, -2948.761519063264, -4221.954360478558, -12694.671530794352, -12087.801704884507, 0.0, 0.06400000303983688, 0.9760000463575125, 0.0, 0.0, 0.0, 0.0, 0.0, 1.756386390066376E9, 0.0, 2025-08-28 10:06:30.066
54.0, -3066.740403065458, -4456.651782197878, -12493.769715024624, -11863.693809889723, 0.0, 0.06400000303983688, 0.9760000463575125, 0.0, 0.0, 0.0, 0.0, 0.0, 1.7563863900671172E9, 0.0, 2025-08-28 10:06:30.067
54.0, -2848.0385334566236, -4524.104617798701, -12347.150677161757, -11736.806484193075, 0.0, 0.06400000303983688, 0.9760000463575125, 0.0, 0.0, 0.0, 0.0, 0.0, 1.7563863900671172E9, 0.0, 2025-08-28 10:06:30.067
55.0, -2869.7748319990933, -4729.643909513485, -12455.996725472156, -11842.21182454424, 0.0, 0.06400000303983688, 0.9760000463575125, 0.0, 0.0, 0.0, 0.0, 0.0, 1.756386390079264E9, 0.0, 2025-08-28 10:06:30.079
55.0, -3089.9876211900264, -4872.766140917782, -12535.933347125072, -11910.076049140189, 0.0, 0.06400000303983688, 0.9760000463575125, 0.0, 0.0, 0.0, 0.0, 0.0, 1.756386390079264E9, 0.0, 2025-08-28 10:06:30.079
56.0, -2926.292200129479, -5025.750488505233, -12580.496125047095, -11985.71365579404, 0.0, 0.06400000303983688, 0.9760000463575125, 0.0, 0.0, 0.0, 0.0, 0.0, 1.7563863900949795E9, 0.0, 2025-08-28 10:06:30.094
56.0, -2814.7609036508948, -4853.932004740927, -12742.009314483497, -12151.924159574788, 0.0, 0.06400000303983688, 0.9760000463575125, 0.0, 0.0, 0.0, 0.0, 0.0, 1.7563863900949795E9, 0.0, 2025-08-28 10:06:30.094
57.0, -3034.480026047677, -4772.402185706887, -12886.578887170646, -12284.724267101381, 0.0, 0.06400000303983688, 0.9760000463575125, 0.0, 0.0, 0.0, 0.0, 0.0, 1.7563863900956764E9, 0.0, 2025-08-28 10:06:30.095
57.0, -2997.466236186214, -5009.048095303122, -12816.541780700441, -12216.613209108356, 0.0, 0.06400000303983688, 0.9760000463575125, 0.0, 0.0, 0.0, 0.0, 0.0, 1.7563863900956764E9, 0.0, 2025-08-28 10:06:30.095
58.0, -2820.6026273816824, -4998.423039529007, -12705.949199110735, -12127.13236276852, 0.0, 0.06400000303983688, 0.9760000463575125, 0.0, 0.0, 0.0, 0.0, 0.0, 1.7563863901093352E9, 0.0, 2025-08-28 10:06:30.109
58.0, -2938.3458976866677, -5182.7496186951175, -12652.223666297272, -12059.819773416035, 0.0, 0.06400000303983688, 0.9760000463575125, 0.0, 0.0, 0.0, 0.0, 0.0, 1.7563863901093352E9, 0.0, 2025-08-28 10:06:30.109
59.0, -3049.880934065208, -4944.8788918633945, -12474.217518056277, -11860.5896929265, 0.0, 0.06400000303983688, 0.9760000463575125, 0.0, 0.0, 0.0, 0.0, 0.0, 1.7563863901249745E9, 0.0, 2025-08-28 10:06:30.124
59.0, -2845.6898762844503, -5064.361215647776, -12336.993108882103, -11746.141274482477, 0.0, 0.06400000303983688, 0.9760000463575125, 0.0, 0.0, 0.0, 0.0, 0.0, 1.7563863901249745E9, 0.0, 2025-08-28 10:06:30.124
60.0, -2867.01852573175, -5235.407410071231, -12433.426429239567, -11826.14147443464, 0.0, 0.06400000303983688, 0.9760000463575125, 0.0, 0.0, 0.0, 0.0, 0.0, 1.7563863901256208E9, 0.0, 2025-08-28 10:06:30.125
60.0, -3076.4566631503403, -5376.633512197994, -12485.635432620998, -11857.953063457739, 0.0, 0.06400000303983688, 0.9760000463575125, 0.0, 0.0, 0.0, 0.0, 0.0, 1.7563863901256208E9, 0.0, 2025-08-28 10:06:30.125
61.0, -2890.475178253837, -5496.429987578653, -12520.900819253176, -11914.124490842223, 0.0, 0.06400000303983688, 0.9760000463575125, 0.0, 0.0, 0.0, 0.0, 0.0, 1.7563863901392796E9, 0.0, 2025-08-28 10:06:30.139
61.0, -2808.69104602281, -5394.558852685615, -12718.358187163714, -12115.979981100652, 0.0, 0.06400000303983688, 0.9760000463575125, 0.0, 0.0, 0.0, 0.0, 0.0, 1.7563863901392796E9, 0.0, 2025-08-28 10:06:30.139
62.0, -3030.534431594424, -5249.585370803252, -12860.754877976608, -12247.007376048248, 0.0, 0.06400000303983688, 0.9760000463575125, 0.0, 0.0, 0.0, 0.0, 0.0, 1.7563863901549623E9, 0.0, 2025-08-28 10:06:30.154
62.0, -2977.831761418842, -5471.58957207296, -12783.993431386072, -12162.059288454708, 0.0, 0.06400000303983688, 0.9760000463575125, 0.0, 0.0, 0.0, 0.0, 0.0, 1.7563863901549623E9, 0.0, 2025-08-28 10:06:30.154
63.0, -2808.174939828925, -5462.239822183736, -12700.335609277245, -12079.987183927093, 0.0, 0.06400000303983688, 0.9760000463575125, 0.0, 0.0, 0.0, 0.0, 0.0, 1.7563863901557362E9, 0.0, 2025-08-28 10:06:30.155
63.0, -2934.303065834567, -5675.39729010826, -12643.94726769533, -12020.244152084924, 0.0, 0.06400000303983688, 0.9760000463575125, 0.0, 0.0, 0.0, 0.0, 0.0, 1.7563863901557362E9, 0.0, 2025-08-28 10:06:30.155
64.0, -3053.2019652258605, -5471.727948371321, -12470.739411097486, -11844.055595222395, 0.0, 0.06400000303983688, 0.9760000463575125, 0.0, 0.0, 0.0, 0.0, 0.0, 1.7563863901692896E9, 0.0, 2025-08-28 10:06:30.169
64.0, -2840.7644280428067, -5512.313342690468, -12333.679557521362, -11734.891655415762, 0.0, 0.06400000303983688, 0.9760000463575125, 0.0, 0.0, 0.0, 0.0, 0.0, 1.7563863901692896E9, 0.0, 2025-08-28 10:06:30.169
65.0, -2852.4142164047807, -5717.396366610657, -12417.602912527043, -11821.590016188566, 0.0, 0.06400000303983688, 0.9760000463575125, 0.0, 0.0, 0.0, 0.0, 0.0, 1.7563863901849575E9, 0.0, 2025-08-28 10:06:30.184
65.0, -3083.839225662872, -5866.7417915412225, -12509.488514538389, -11894.776118421461, 0.0, 0.06400000303983688, 0.9760000463575125, 0.0, 0.0, 0.0, 0.0, 0.0, 1.7563863901849575E9, 0.0, 2025-08-28 10:06:30.184
66.0, -2910.8838123120368, -6025.75111795729, -12575.271484808996, -11965.394779334776, 0.0, 0.06400000303983688, 0.9760000463575125, 0.0, 0.0, 0.0, 0.0, 0.0, 1.756386390185687E9, 0.0, 2025-08-28 10:06:30.185
66.0, -2808.6873061228544, -5867.51595083205, -12762.171115144622, -12146.632201137487, 0.0, 0.06400000303983688, 0.9760000463575125, 0.0, 0.0, 0.0, 0.0, 0.0, 1.756386390185687E9, 0.0, 2025-08-28 10:06:30.185
67.0, -3037.213892915286, -5757.233780938666, -12893.527621288318, -12291.949753815774, 0.0, 0.06400000303983688, 0.9760000463575125, 0.0, 0.0, 0.0, 0.0, 0.0, 1.756386390199287E9, 0.0, 2025-08-28 10:06:30.199
67.0, -2985.779048824683, -5983.0900791627355, -12788.040003138129, -12189.394217230845, 0.0, 0.06400000303983688, 0.9760000463575125, 0.0, 0.0, 0.0, 0.0, 0.0, 1.756386390199287E9, 0.0, 2025-08-28 10:06:30.199
68.0, -2806.181573152542, -5965.912718666252, -12690.402434994932, -12098.510908407625, 0.0, 0.06400000303983688, 0.9760000463575125, 0.0, 0.0, 0.0, 0.0, 0.0, 1.7563863902149076E9, 0.0, 2025-08-28 10:06:30.214
68.0, -2940.1672289650887, -6187.421383191831, -12658.28230422549, -12048.375679551624, 0.0, 0.06400000303983688, 0.9760000463575125, 0.0, 0.0, 0.0, 0.0, 0.0, 1.7563863902149076E9, 0.0, 2025-08-28 10:06:30.214
69.0, -3057.8095219712704, -6420.663983828388, -12467.433339536656, -11842.424998841714, 0.0, 0.06400000303983688, 0.9760000463575125, 0.0, 0.0, 0.0, 0.0, 0.0, 1.75638639021568E9, 0.0, 2025-08-28 10:06:30.215
69.0, -2841.6358247324824, -6535.81550346408, -12330.463243559469, -11705.638157962356, 0.0, 0.06400000303983688, 0.9760000463575125, 0.0, 0.0, 0.0, 0.0, 0.0, 1.75638639021568E9, 0.0, 2025-08-28 10:06:30.215
70.0, -2857.657556142658, -6708.944822162855, -12410.616779409815, -11798.196941965725, 0.0, 0.06400000303983688, 0.9760000463575125, 0.0, 0.0, 0.0, 0.0, 0.0, 1.7563863902292528E9, 0.0, 2025-08-28 10:06:30.229
70.0, -3073.6816573832184, -6844.912624951918, -12476.682112127077, -11861.827599811833, 0.0, 0.06400000303983688, 0.9760000463575125, 0.0, 0.0, 0.0, 0.0, 0.0, 1.7563863902292528E9, 0.0, 2025-08-28 10:06:30.229
71.0, -2907.5814806511626, -7010.137665094342, -12550.532046602108, -11960.551608892158, 0.0, 0.06400000303983688, 0.9760000463575125, 0.0, 0.0, 0.0, 0.0, 0.0, 1.7563863902449248E9, 0.0, 2025-08-28 10:06:30.244
71.0, -2818.003396912478, -6835.035549168941, -12743.340718867723, -12150.312262693886, 0.0, 0.06400000303983688, 0.9760000463575125, 0.0, 0.0, 0.0, 0.0, 0.0, 1.7563863902449248E9, 0.0, 2025-08-28 10:06:30.244
72.0, -3029.7079137042165, -6755.802028707694, -12871.110660953913, -12241.850054009352, 0.0, 0.06400000303983688, 0.9760000463575125, 0.0, 0.0, 0.0, 0.0, 0.0, 1.756386390245627E9, 0.0, 2025-08-28 10:06:30.245
72.0, -2978.3516075126827, -6973.206153031904, -12786.992831150535, -12164.045175331179, 0.0, 0.06400000303983688, 0.9760000463575125, 0.0, 0.0, 0.0, 0.0, 0.0, 1.756386390245627E9, 0.0, 2025-08-28 10:06:30.245
73.0, -2805.568229559809, -6936.379358168226, -12675.958941366058, -12090.122312807012, 0.0, 0.06400000303983688, 0.9760000463575125, 0.0, 0.0, 0.0, 0.0, 0.0, 1.756386390259277E9, 0.0, 2025-08-28 10:06:30.259
73.0, -2934.6845356300473, -7156.676295108162, -12631.58315844182, -12029.459265575744, 0.0, 0.06400000303983688, 0.9760000463575125, 0.0, 0.0, 0.0, 0.0, 0.0, 1.756386390259277E9, 0.0, 2025-08-28 10:06:30.259
74.0, -3075.2112764650956, -6912.084968056064, -12486.248776213732, -11872.003867591266, 0.0, 0.06400000303983688, 0.9760000463575125, 0.0, 0.0, 0.0, 0.0, 0.0, 1.7563863902749195E9, 0.0, 2025-08-28 10:06:30.274
74.0, -2853.4763479921967, -7024.016433829907, -12343.773547501769, -11747.270724269096, 0.0, 0.06400000303983688, 0.9760000463575125, 0.0, 0.0, 0.0, 0.0, 0.0, 1.7563863902749195E9, 0.0, 2025-08-28 10:06:30.274
75.0, -2860.260526511818, -7200.287268491462, -12416.71281633759, -11842.798988837283, 0.0, 0.06400000303983688, 0.9760000463575125, 0.0, 0.0, 0.0, 0.0, 0.0, 1.7563863902756567E9, 0.0, 2025-08-28 10:06:30.275
75.0, -3079.9310302091762, -7334.512277901173, -12512.719788100105, -11913.071709004696, 0.0, 0.06400000303983688, 0.9760000463575125, 0.0, 0.0, 0.0, 0.0, 0.0, 1.7563863902756567E9, 0.0, 2025-08-28 10:06:30.275
76.0, -2916.9536699401215, -7506.970284557901, -12562.196794563904, -11973.237349541858, 0.0, 0.06400000303983688, 0.9760000463575125, 0.0, 0.0, 0.0, 0.0, 0.0, 1.7563863902892401E9, 0.0, 2025-08-28 10:06:30.289
76.0, -2807.483058337122, -7289.809253730811, -12715.826274893712, -12126.148769080173, 0.0, 0.06400000303983688, 0.9760000463575125, 0.0, 0.0, 0.0, 0.0, 0.0, 1.7563863902892401E9, 0.0, 2025-08-28 10:06:30.289
77.0, -3030.1567016988993, -7253.016117966734, -12879.618933353107, -12290.446314033587, 0.0, 0.06400000303983688, 0.9760000463575125, 0.0, 0.0, 0.0, 0.0, 0.0, 1.7563863903048797E9, 0.0, 2025-08-28 10:06:30.304
77.0, -3000.106605554931, -7465.54715264868, -12799.035309007857, -12234.531069796067, 0.0, 0.06400000303983688, 0.9760000463575125, 0.0, 0.0, 0.0, 0.0, 0.0, 1.7563863903048797E9, 0.0, 2025-08-28 10:06:30.304
78.0, -2806.9370329435915, -7426.498857211322, -12690.241619296838, -12127.790585160721, 0.0, 0.06400000303983688, 0.9760000463575125, 0.0, 0.0, 0.0, 0.0, 0.0, 1.7563863903056967E9, 0.0, 2025-08-28 10:06:30.305
78.0, -2933.8991566393524, -7661.358964578714, -12622.872931445017, -12033.53201662749, 0.0, 0.06400000303983688, 0.9760000463575125, 0.0, 0.0, 0.0, 0.0, 0.0, 1.7563863903056967E9, 0.0, 2025-08-28 10:06:30.305
79.0, -3046.7506378022954, -7430.982997258194, -12433.452608539257, -11834.612347834278, 0.0, 0.06400000303983688, 0.9760000463575125, 0.0, 0.0, 0.0, 0.0, 0.0, 1.7563863903356287E9, 0.0, 2025-08-28 10:06:30.335
79.0, -2834.200903620571, -7528.803820499219, -12285.831277488265, -11724.375056740362, 0.0, 0.06400000303983688, 0.9760000463575125, 0.0, 0.0, 0.0, 0.0, 0.0, 1.7563863903356287E9, 0.0, 2025-08-28 10:06:30.335
80.0, -2842.8774715177715, -7695.392054175492, -12350.363251223695, -11800.463321338873, 0.0, 0.06400000303983688, 0.9760000463575125, 0.0, 0.0, 0.0, 0.0, 0.0, 1.7563863903363488E9, 0.0, 2025-08-28 10:06:30.336
80.0, -3065.2968016825616, -7802.921657701489, -12454.90841458505, -11868.37242473429, 0.0, 0.06400000303983688, 0.9760000463575125, 0.0, 0.0, 0.0, 0.0, 0.0, 1.7563863903363488E9, 0.0, 2025-08-28 10:06:30.336
81.0, -2887.819849285297, -7960.70429693209, -12525.06332790386, -11959.979404198937, 0.0, 0.04800000227987766, 0.9760000463575125, 0.0, 0.0, 0.0, 0.0, 0.0, 1.7563863903371024E9, 0.0, 2025-08-28 10:06:30.337
