Sample Index, EXG Channel 0, EXG Channel 1, EXG Channel 2, EXG Channel 3, Accel Channel 0, Accel Channel 1, Accel Channel 2, Other, Other, Other, Other, Other, Timestamp, Marker Channel, Timestamp (Formatted)
44,15.2961908187717,4.43552134744823,3.63518275693059,30.2034320421517,0,0,0,0,0,0,0,0,1756383177.1004,0, 2025-08-28 09:12:57.100
44,-94.0734434854239,33.2664101058617,-26.1007617907599,100.846402305178,0,0,0,0,0,0,0,0,1756383177.1004,0, 2025-08-28 09:12:57.100
0,-453.659214375075,-3101.45602440415,-6988.09282480553,-9589.5784536833,0,0,0,0,0,0,0,0,1756383177.12666,0, 2025-08-28 09:12:57.126
1,-574.199929846916,-3114.21656305296,-7034.46384435613,-9588.1685114,0,0.0160000007599592,0,0,0,0,0,0,1756383177.14008,0, 2025-08-28 09:12:57.140
1,-523.172734851483,-3104.87803286361,-6995.13879632205,-9568.23110473622,0,0.0160000007599592,0,0,0,0,0,0,1756383177.14008,0, 2025-08-28 09:12:57.140
2,-430.086624954361,-3105.33056075824,-6932.06912346929,-9601.1833632458,0,0.0160000007599592,0,0,0,0,0,0,1756383177.15681,0, 2025-08-28 09:12:57.156
2,-527.376382401679,-3101.72529720096,-6986.14059702866,-9561.21505241934,0,0.0160000007599592,0,0,0,0,0,0,1756383177.15681,0, 2025-08-28 09:12:57.156
3,-551.016290021595,-3080.55746345175,-6952.63483332563,-9511.62771890685,0,0.0160000007599592,0,0,0,0,0,0,1756383177.1575,0, 2025-08-28 09:12:57.157
3,-427.633250583429,-3067.13122261083,-6863.46065878216,-9552.94239371736,0,0.0160000007599592,0,0,0,0,0,0,1756383177.1575,0, 2025-08-28 09:12:57.157
4,-484.879899205174,-3061.85422377335,-6902.53139361925,-9544.83055071347,0,0.0160000007599592,0,0,0,0,0,0,1756383177.1699,0, 2025-08-28 09:12:57.169
4,-559.453504321631,-3037.91512415698,-6944.41827312298,-9510.94705711491,0,0.0160000007599592,0,0,0,0,0,0,1756383177.1699,0, 2025-08-28 09:12:57.169
5,-452.70927978633,-3051.60689789476,-6893.00586843211,-9546.52472539339,0,0.0160000007599592,0,0,0,0,0,0,1756383177.18551,0, 2025-08-28 09:12:57.185
5,-442.873342902865,-3064.9134619371,-6887.07812700234,-9588.00395580195,0,0.0160000007599592,0,0,0,0,0,0,1756383177.18551,0, 2025-08-28 09:12:57.185
6,-536.864508589264,-3030.74199604196,-6958.54013535567,-9541.90594894811,0,0.0160000007599592,0,0,0,0,0,0,1756383177.18627,0, 2025-08-28 09:12:57.186
6,-491.708956524264,-3035.32337348768,-6893.29758062866,-9525.94779583719,0,0.0160000007599592,0,0,0,0,0,0,1756383177.18627,0, 2025-08-28 09:12:57.186
7,-402.942431075964,-3038.07593985507,-6858.86432173662,-9569.17355952505,0,0.0160000007599592,0,0,0,0,0,0,1756383177.19987,0, 2025-08-28 09:12:57.199
7,-509.297706015874,-3030.36426614644,-6901.82829242758,-9541.14300935716,0,0.0160000007599592,0,0,0,0,0,0,1756383177.19987,0, 2025-08-28 09:12:57.199
8,-519.395435896236,-3029.47043005703,-6905.96836167853,-9495.40777279902,0,0.0160000007599592,0,0,0,0,0,0,1756383177.21552,0, 2025-08-28 09:12:57.215
8,-396.28166925488,-3007.80144971376,-6804.04112828616,-9497.0047100801,0,0.0160000007599592,0,0,0,0,0,0,1756383177.21552,0, 2025-08-28 09:12:57.215
9,-454.362315566745,-3032.13697872544,-6857.60397545155,-9515.03102786653,0,0.0160000007599592,0,0,0,0,0,0,1756383177.21623,0, 2025-08-28 09:12:57.216
9,-534.085762922186,-3000.17579370411,-6895.70607620012,-9479.62165508605,0,0.0160000007599592,0,0,0,0,0,0,1756383177.21623,0, 2025-08-28 09:12:57.216
10,-417.247548406478,-2997.3072904381,-6790.66724604461,-9481.06899636891,0,0.0160000007599592,0.496000023558736,0,0,0,0,0,1756383177.22983,0, 2025-08-28 09:12:57.229
10,-404.920838152524,-3020.66296566138,-6810.46253651008,-9545.22324020881,0,0.0160000007599592,0.496000023558736,0,0,0,0,0,1756383177.22983,0, 2025-08-28 09:12:57.229
11,-510.513173501473,-3011.09630157473,-6875.25256334245,-9507.22959655896,0,0.0160000007599592,0.496000023558736,0,0,0,0,0,1756383177.24556,0, 2025-08-28 09:12:57.245
11,-458.936213212553,-2973.17745592399,-6835.07855801843,-9477.92374050617,0,0.0160000007599592,0.496000023558736,0,0,0,0,0,1756383177.24556,0, 2025-08-28 09:12:57.245
12,-378.001038271468,-3005.82678253716,-6803.95511058718,-9548.90330176521,0,0.0160000007599592,0.496000023558736,0,0,0,0,0,1756383177.24622,0, 2025-08-28 09:12:57.246
12,-488.698337059934,-3005.93897953583,-6882.76228245348,-9515.60323255975,0,0.0160000007599592,0.496000023558736,0,0,0,0,0,1756383177.24622,0, 2025-08-28 09:12:57.246
13,-499.618844930548,-2995.25782526238,-6883.74213624187,-9482.45275935251,0,0.0160000007599592,0.496000023558736,0,0,0,0,0,1756383177.25985,0, 2025-08-28 09:12:57.259
13,-366.321330709849,-2987.64712885255,-6796.11628028005,-9501.97877702117,0,0.0160000007599592,0.496000023558736,0,0,0,0,0,1756383177.25985,0, 2025-08-28 09:12:57.259
14,-433.041145919357,-3006.18955283286,-6830.76645336952,-9507.73074315302,0,0.0160000007599592,0.496000023558736,0,0,0,0,0,1756383177.2756,0, 2025-08-28 09:12:57.275
14,-514.956174648833,-2997.4082677369,-6880.62679957878,-9480.88574127108,0,0.0160000007599592,0.496000023558736,0,0,0,0,0,1756383177.2756,0, 2025-08-28 09:12:57.275
15,-401.128579597455,-2997.43070713663,-6793.71900440846,-9489.21823837236,0,0.0160000007599592,0.496000023558736,0,0,0,0,0,1756383177.27627,0, 2025-08-28 09:12:57.276
15,-386.909479965921,-2994.9100145665,-6804.73674967792,-9516.79626064561,0,0.0160000007599592,0.496000023558736,0,0,0,0,0,1756383177.27627,0, 2025-08-28 09:12:57.276
16,-494.82803308731,-2970.3575713574,-6898.16693037096,-9452.2717667101,0,0.0160000007599592,0.496000023558736,0,0,0,0,0,1756383177.3062,0, 2025-08-28 09:12:57.306
16,-450.255905415397,-2988.04729814781,-6863.03431018721,-9452.32038540952,0,0.0160000007599592,0.496000023558736,0,0,0,0,0,1756383177.3062,0, 2025-08-28 09:12:57.306
17,-358.258106405381,-3007.12078792183,-6775.89838111959,-9511.29860771075,0,0.0160000007599592,0.496000023558736,0,0,0,0,0,1756383177.30696,0, 2025-08-28 09:12:57.306
17,-454.362315566745,-3003.92691335967,-6875.85842713527,-9491.52949654497,0,0.0160000007599592,0.496000023558736,0,0,0,0,0,1756383177.30696,0, 2025-08-28 09:12:57.306
18,-474.501676828135,-2977.0332927783,-6896.44657639135,-9451.29939272162,0,0.0160000007599592,0.496000023558736,0,0,0,0,0,1756383177.30778,0, 2025-08-28 09:12:57.307
18,-352.93996866839,-2987.8116844506,-6797.47386396397,-9478.41740730032,0,0.0160000007599592,0.496000023558736,0,0,0,0,0,1756383177.30778,0, 2025-08-28 09:12:57.307
19,-403.6230928679,-3005.39669404225,-6839.95912746061,-9486.6489271028,0,0.0160000007599592,0.496000023558736,0,0,0,0,0,1756383177.31979,0, 2025-08-28 09:12:57.319
19,-490.108279343229,-2964.49340822687,-6888.42075108644,-9410.58684180398,0,0.0160000007599592,0.496000023558736,0,0,0,0,0,1756383177.31979,0, 2025-08-28 09:12:57.319
20,-388.274543449748,-2979.51658634888,-6861.22419860866,-9465.86256314907,0,0.0160000007599592,0.736000034958124,0,0,0,0,0,1756383177.33554,0, 2025-08-28 09:12:57.335
20,-374.668787410948,-2988.60828314116,-6820.51538759098,-9468.11772282235,0,0.0160000007599592,0.736000034958124,0,0,0,0,0,1756383177.33554,0, 2025-08-28 09:12:57.335
21,-471.831388259772,-2966.3820577045,-6916.72805385105,-9424.54414843861,0,0.0320000015199184,0.736000034958124,0,0,0,0,0,1756383177.33627,0, 2025-08-28 09:12:57.336
21,-426.021353702527,-2982.62444321206,-6896.01274799649,-9432.0650872495,0,0.0320000015199184,0.736000034958124,0,0,0,0,0,1756383177.33627,0, 2025-08-28 09:12:57.336
22,-330.085440039169,-3000.40018770145,-6813.59657267295,-9496.55592208542,0,0.0320000015199184,0.736000034958124,0,0,0,0,0,1756383177.34984,0, 2025-08-28 09:12:57.349
22,-440.274112433661,-3039.95710953278,-6902.43041632045,-9505.26614908222,0,0.0320000015199184,0.736000034958124,0,0,0,0,0,1756383177.34984,0, 2025-08-28 09:12:57.349
23,-456.265924644191,-3038.66310414812,-6954.47860400379,-9475.05523724016,0,0.0320000015199184,0.736000034958124,0,0,0,0,0,1756383177.36569,0, 2025-08-28 09:12:57.365
23,-339.345432329457,-3022.06916804472,-6834.44277502596,-9509.1332056364,0,0.0320000015199184,0.736000034958124,0,0,0,0,0,1756383177.36569,0, 2025-08-28 09:12:57.365
24,-405.807194442023,-3029.84815995255,-6876.90559912287,-9503.55327490252,0,0.0320000015199184,0.736000034958124,0,0,0,0,0,1756383177.36626,0, 2025-08-28 09:12:57.366
24,-484.651765307877,-3009.2076520971,-6984.68577594589,-9464.98742655944,0,0.0320000015199184,0.736000034958124,0,0,0,0,0,1756383177.36626,0, 2025-08-28 09:12:57.366
25,-367.521838595625,-3006.15589373326,-6872.53739597462,-9466.39736884274,0,0.0320000015199184,0.736000034958124,0,0,0,0,0,1756383177.37983,0, 2025-08-28 09:12:57.379
25,-357.442808215041,-3022.81714803586,-6843.87106281426,-9504.63410598971,0,0.0320000015199184,0.736000034958124,0,0,0,0,0,1756383177.37983,0, 2025-08-28 09:12:57.379
26,-462.900507165585,-3013.01487025199,-6970.47041621432,-9476.2669648258,0,0.0320000015199184,0.736000034958124,0,0,0,0,0,1756383177.39554,0, 2025-08-28 09:12:57.395
26,-421.866324851755,-2989.36748283217,-6953.99241700955,-9448.38227075618,0,0.0320000015199184,0.736000034958124,0,0,0,0,0,1756383177.39554,0, 2025-08-28 09:12:57.395
27,-330.627725532744,-2997.75607843278,-6890.67217085976,-9518.2997004278,0,0.0320000015199184,0.736000034958124,0,0,0,0,0,1756383177.39626,0, 2025-08-28 09:12:57.396
27,-434.170595705975,-2990.29123812122,-6946.12366750278,-9487.9317127876,0,0.0320000015199184,0.736000034958124,0,0,0,0,0,1756383177.39626,0, 2025-08-28 09:12:57.396
28,-454.235158968251,-3002.83486257261,-6990.34424457885,-9462.34705719072,0,0.0320000015199184,0.736000034958124,0,0,0,0,0,1756383177.40982,0, 2025-08-28 09:12:57.409
28,-324.7486028024,-2981.25937972823,-6845.18750759866,-9595.74554871023,0,0.0320000015199184,0.736000034958124,0,0,0,0,0,1756383177.40982,0, 2025-08-28 09:12:57.409
29,-395.03254266968,-2993.9563400778,-6866.30672264844,-9754.74365542643,0,0.0320000015199184,0.736000034958124,0,0,0,0,0,1756383177.42555,0, 2025-08-28 09:12:57.425
29,-464.362808048259,-2964.71406232426,-6960.49984293245,-9708.63816877268,0,0.0320000015199184,0.736000034958124,0,0,0,0,0,1756383177.42555,0, 2025-08-28 09:12:57.425
30,-350.740907494444,-2966.69994920073,-6872.53365607467,-9692.65383636206,0,0.0320000015199184,0.848000040277839,0,0,0,0,0,1756383177.42626,0, 2025-08-28 09:12:57.426
30,-349.39080361044,-2967.06271949643,-6832.67754224688,-9706.0202388037,0,0.0320000015199184,0.848000040277839,0,0,0,0,0,1756383177.42626,0, 2025-08-28 09:12:57.426
31,-457.271957732271,-2947.0617345334,-6900.04062024877,-9645.3852408221,0,0.0320000015199184,0.848000040277839,0,0,0,0,0,1756383177.43983,0, 2025-08-28 09:12:57.439
31,-418.133904695977,-2963.33777914057,-6889.52402157337,-9648.46691838559,0,0.0320000015199184,0.848000040277839,0,0,0,0,0,1756383177.43983,0, 2025-08-28 09:12:57.439
32,-324.296074907761,-2964.34007232869,-6802.41053190548,-9690.59689138643,0.0160000007599592,0.0320000015199184,0.848000040277839,0,0,0,0,0,1756383177.45554,0, 2025-08-28 09:12:57.455
32,-432.712034723256,-2946.50074954005,-6886.47974300943,-9654.1627860181,0.0160000007599592,0.0320000015199184,0.848000040277839,0,0,0,0,0,1756383177.45554,0, 2025-08-28 09:12:57.455
33,-450.51395851234,-2933.02215009974,-6902.34813852143,-9594.40292462613,0.0160000007599592,0.0320000015199184,0.848000040277839,0,0,0,0,0,1756383177.45628,0, 2025-08-28 09:12:57.456
33,-322.852473524865,-2939.92226551799,-6804.37023948226,-9627.9647868285,0.0160000007599592,0.0320000015199184,0.848000040277839,0,0,0,0,0,1756383177.45628,0, 2025-08-28 09:12:57.456
34,-391.15426641563,-2950.78293498931,-6844.71254030429,-9618.56641823985,0.0160000007599592,0.0320000015199184,0.848000040277839,0,0,0,0,0,1756383177.46983,0, 2025-08-28 09:12:57.469
34,-454.889641460497,-2934.86218087794,-6938.2212588964,-9563.99005818646,0.0160000007599592,0.0320000015199184,0.848000040277839,0,0,0,0,0,1756383177.46983,0, 2025-08-28 09:12:57.469
35,-334.543400786351,-2926.82513587316,-6822.2095622709,-9564.70811897796,0.0160000007599592,0.0320000015199184,0.848000040277839,0,0,0,0,0,1756383177.48567,0, 2025-08-28 09:12:57.485
35,-331.457983322907,-2934.97063797666,-6778.72948538605,-9598.15778418165,0.0160000007599592,0.0320000015199184,0.848000040277839,0,0,0,0,0,1756383177.48567,0, 2025-08-28 09:12:57.485
36,-441.160468723159,-2925.94999928353,-6894.1465379186,-9537.87433679588,0.0160000007599592,0.0320000015199184,0.848000040277839,0,0,0,0,0,1756383177.48624,0, 2025-08-28 09:12:57.486
36,-392.769903196488,-2895.64558994258,-6855.22165917978,-9506.55267466698,0.0160000007599592,0.0320000015199184,0.848000040277839,0,0,0,0,0,1756383177.48624,0, 2025-08-28 09:12:57.486
37,-302.484978366178,-2900.85527058085,-6766.00634573679,-9552.00367882848,0.0160000007599592,0.0320000015199184,0.848000040277839,0,0,0,0,0,1756383177.49988,0, 2025-08-28 09:12:57.499
37,-413.171057454776,-2907.13456260646,-6878.65213240217,-9563.91152028739,0.0160000007599592,0.0320000015199184,0.848000040277839,0,0,0,0,0,1756383177.49988,0, 2025-08-28 09:12:57.499
38,-427.412596486043,-2888.94742912194,-6868.61050102115,-9517.13285164163,0.0160000007599592,0.0320000015199184,0.848000040277839,0,0,0,0,0,1756383177.51552,0, 2025-08-28 09:12:57.515
38,-298.169133817311,-2899.36679039849,-6747.01139386185,-9560.01828443352,0.0160000007599592,0.0320000015199184,0.848000040277839,0,0,0,0,0,1756383177.51552,0, 2025-08-28 09:12:57.515
39,-360.39358928008,-2927.03083037073,-6794.52308289893,-9569.76072381809,0.0160000007599592,0.0320000015199184,0.848000040277839,0,0,0,0,0,1756383177.51625,0, 2025-08-28 09:12:57.516
39,-443.108956600074,-2913.49239253113,-6892.5683001373,-9526.46390203107,0.0160000007599592,0.0320000015199184,0.848000040277839,0,0,0,0,0,1756383177.51625,0, 2025-08-28 09:12:57.516
40,-325.137552397791,-2920.1120154527,-6806.59921985585,-9548.41337487102,0.0160000007599592,0.0320000015199184,0.912000043317676,0,0,0,0,0,1756383177.52988,0, 2025-08-28 09:12:57.529
40,-313.801915632095,-2904.1688219416,-6753.10743078962,-9556.12504857965,0.0160000007599592,0.0320000015199184,0.912000043317676,0,0,0,0,0,1756383177.52988,0, 2025-08-28 09:12:57.529
41,-434.249133605044,-2904.41191543872,-6907.5578191597,-9542.37717634253,0.0160000007599592,0.0480000022798777,0.912000043317676,0,0,0,0,0,1756383177.54554,0, 2025-08-28 09:12:57.545
41,-376.14230799349,-2884.48198857484,-6861.10826171003,-9485.11556812096,0.0160000007599592,0.0480000022798777,0.912000043317676,0,0,0,0,0,1756383177.54554,0, 2025-08-28 09:12:57.545
42,-297.207979528699,-2919.749245157,-6799.66170543805,-9552.86385581829,0,0.0480000022798777,0.912000043317676,0,0,0,0,0,1756383177.54625,0, 2025-08-28 09:12:57.546
42,-425.763300605584,-2920.99463184224,-6884.47141673323,-9553.82875000685,0,0.0480000022798777,0.912000043317676,0,0,0,0,0,1756383177.54625,0, 2025-08-28 09:12:57.546
43,-464.273050449323,-2913.59710972989,-6929.4437137004,-9519.73956191074,0,0.0480000022798777,0.912000043317676,0,0,0,0,0,1756383177.55983,0, 2025-08-28 09:12:57.559
43,-356.470434226561,-2887.48512823926,-6844.21139371023,-9529.15289009921,0,0.0480000022798777,0.912000043317676,0,0,0,0,0,1756383177.55983,0, 2025-08-28 09:12:57.559
44,-415.699229824822,-2906.28186541656,-6937.50319810491,-9505.50550267939,0,0.0480000022798777,0.912000043317676,0,0,0,0,0,1756383177.57554,0, 2025-08-28 09:12:57.575
44,-501.900183903519,-2882.74293509545,-7057.37821138464,-9441.20540274121,0,0.0480000022798777,0.912000043317676,0,0,0,0,0,1756383177.57554,0, 2025-08-28 09:12:57.575
45,-379.646594251972,-2861.85185394296,-6986.19669552799,-9434.61569901928,0,0.0480000022798777,0.912000043317676,0,0,0,0,0,1756383177.57626,0, 2025-08-28 09:12:57.576
45,-361.444501167629,-2891.22876809491,-6940.8803277649,-9460.01709951833,0,0.0480000022798777,0.912000043317676,0,0,0,0,0,1756383177.57626,0, 2025-08-28 09:12:57.576
46,-457.096182434354,-2890.84729829943,-7054.20303632226,-9409.83886181284,0,0.0480000022798777,0.912000043317676,0,0,0,0,0,1756383177.58993,0, 2025-08-28 09:12:57.589
46,-410.710203283932,-2892.91920287488,-7011.65793442633,-9406.91052014753,0,0.0480000022798777,0.912000043317676,0,0,0,0,0,1756383177.58993,0, 2025-08-28 09:12:57.589
47,-313.641099934,-2906.5735776131,-6926.53781143483,-9466.35249004327,0,0.0480000022798777,0.912000043317676,0,0,0,0,0,1756383177.60552,0, 2025-08-28 09:12:57.605
47,-415.497275227215,-2905.86673652148,-7023.47601828631,-9456.95786135457,0,0.0480000022798777,0.912000043317676,0,0,0,0,0,1756383177.60552,0, 2025-08-28 09:12:57.605
48,-434.63434330048,-2916.95927979005,-7044.72612983454,-9444.36187830381,0,0.0480000022798777,0.912000043317676,0,0,0,0,0,1756383177.60623,0, 2025-08-28 09:12:57.606
48,-299.642654399853,-2920.44860644871,-6910.15704962891,-9480.7997235721,0,0.0480000022798777,0.912000043317676,0,0,0,0,0,1756383177.60623,0, 2025-08-28 09:12:57.606
49,-370.539937859867,-2927.7339315624,-6948.82387527078,-9499.11775355507,0,0.0480000022798777,0.912000043317676,0,0,0,0,0,1756383177.61987,0, 2025-08-28 09:12:57.619
49,-442.559191306587,-2912.02261184854,-7062.01194742974,-9450.77954662778,0,0.0480000022798777,0.912000043317676,0,0,0,0,0,1756383177.61987,0, 2025-08-28 09:12:57.619
50,-329.296321148518,-2906.45764071448,-6920.7671458032,-9465.88874244876,0,0.0480000022798777,0.944000044837594,0,0,0,0,0,1756383177.63551,0, 2025-08-28 09:12:57.635
50,-312.545309246983,-2907.56091120141,-6862.51820399333,-9476.61477552168,0,0.0480000022798777,0.944000044837594,0,0,0,0,0,1756383177.63551,0, 2025-08-28 09:12:57.635
51,-427.371457586531,-2905.04395853123,-7025.81719565857,-9433.71438312996,0,0.0480000022798777,0.944000044837594,0,0,0,0,0,1756383177.63622,0, 2025-08-28 09:12:57.636
51,-365.872542715166,-2914.13565532351,-7004.29781131353,-9436.74370209407,0,0.0480000022798777,0.944000044837594,0,0,0,0,0,1756383177.63622,0, 2025-08-28 09:12:57.636
52,-264.68580951402,-2915.73633250454,-6901.65999692958,-9486.79852310102,0,0.0480000022798777,0.944000044837594,0,0,0,0,0,1756383177.64984,0, 2025-08-28 09:12:57.649
52,-393.779676184524,-2924.75323129771,-7024.57554887328,-9493.56400212087,0,0.0480000022798777,0.944000044837594,0,0,0,0,0,1756383177.64984,0, 2025-08-28 09:12:57.649
53,-400.563854704145,-2909.86094967416,-6995.70726111531,-9445.85409838613,0,0.0480000022798777,0.944000044837594,0,0,0,0,0,1756383177.66549,0, 2025-08-28 09:12:57.665
53,-277.566024961416,-2903.83223094558,-6889.76337517053,-9482.89406754728,0,0.0480000022798777,0.944000044837594,0,0,0,0,0,1756383177.66549,0, 2025-08-28 09:12:57.665
54,-345.067479261663,-2921.96326593077,-6917.14318274614,-9478.98213219363,0,0.0480000022798777,0.944000044837594,0,0,0,0,0,1756383177.66621,0, 2025-08-28 09:12:57.666
54,-423.362284834031,-2906.8017115104,-7036.14679933619,-9444.76578749903,0,0.0480000022798777,0.944000044837594,0,0,0,0,0,1756383177.66621,0, 2025-08-28 09:12:57.666
55,-303.225478557404,-2918.05133057712,-6924.18167446274,-9464.37034306675,0,0.0480000022798777,0.944000044837594,0,0,0,0,0,1756383177.6799,0, 2025-08-28 09:12:57.679
55,-286.459507056046,-2928.01816395903,-6880.09199388512,-9511.96804980282,0,0.0480000022798777,0.944000044837594,0,0,0,0,0,1756383177.6799,0, 2025-08-28 09:12:57.679
56,-397.901045935694,-2915.61665570596,-7005.47587979957,-9452.36152430903,0,0.0480000022798777,0.944000044837594,0,0,0,0,0,1756383177.69549,0, 2025-08-28 09:12:57.695
56,-349.188849012833,-2906.82415091014,-6971.17351740599,-9416.89979292918,0,0.0480000022798777,0.944000044837594,0,0,0,0,0,1756383177.69549,0, 2025-08-28 09:12:57.695
57,-267.389757181983,-2927.19912586873,-6894.97679570876,-9499.54784204997,0,0.0480000022798777,0.944000044837594,0,0,0,0,0,1756383177.69622,0, 2025-08-28 09:12:57.696
57,-376.19466659287,-2923.04783691792,-6980.75888099242,-9511.22754961159,0,0.0480000022798777,0.944000044837594,0,0,0,0,0,1756383177.69622,0, 2025-08-28 09:12:57.696
58,-395.03254266968,-2930.74455102673,-7032.76592977624,-9493.46302482206,0,0.0480000022798777,0.944000044837594,0,0,0,0,0,1756383177.70984,0, 2025-08-28 09:12:57.709
58,-265.220615207683,-2928.55670955265,-6929.31281720195,-9547.39612208307,0,0.0480000022798777,0.944000044837594,0,0,0,0,0,1756383177.70984,0, 2025-08-28 09:12:57.709
59,-333.021261504386,-2922.22505892767,-6951.57270173822,-9528.39369040821,0,0.0480000022798777,0.944000044837594,0,0,0,0,0,1756383177.72549,0, 2025-08-28 09:12:57.725
59,-418.156344095711,-2915.66527440539,-7062.15780352801,-9492.71878473088,0,0.0480000022798777,0.944000044837594,0,0,0,0,0,1756383177.72549,0, 2025-08-28 09:12:57.725
60,-291.605609395076,-2897.88205011608,-6938.02678409871,-9495.28435610048,0,0.0480000022798777,0.960000045597553,0,0,0,0,0,1756383177.72621,0, 2025-08-28 09:12:57.726
60,-287.757252340671,-2913.06978383614,-6908.52271334827,-9543.02043913491,0,0.0480000022798777,0.960000045597553,0,0,0,0,0,1756383177.72621,0, 2025-08-28 09:12:57.726
61,-404.890918952879,-2898.01294661453,-7020.38686092291,-9506.85186666343,0,0.0480000022798777,0.960000045597553,0,0,0,0,0,1756383177.73981,0, 2025-08-28 09:12:57.739
61,-342.524347291794,-2886.67730984883,-6947.60840778519,-9486.03184361011,0,0.0480000022798777,0.960000045597553,0,0,0,0,0,1756383177.73981,0, 2025-08-28 09:12:57.739
62,-250.979076176416,-2894.47500125645,-6861.87868110091,-9569.17355952505,0.0160000007599592,0.0480000022798777,0.960000045597553,0,0,0,0,0,1756383177.75549,0, 2025-08-28 09:12:57.755
62,-368.954220278654,-2912.66587464092,-6974.19535657018,-9579.9220319977,0.0160000007599592,0.0480000022798777,0.960000045597553,0,0,0,0,0,1756383177.75549,0, 2025-08-28 09:12:57.755
63,-385.985724676866,-2897.71375461807,-7011.2128863316,-9553.29394431319,0.0160000007599592,0.0480000022798777,0.960000045597553,0,0,0,0,0,1756383177.75621,0, 2025-08-28 09:12:57.756
63,-245.709557138849,-2901.53967227275,-6930.09445629269,-9602.87379802577,0.0160000007599592,0.0480000022798777,0.960000045597553,0,0,0,0,0,1756383177.75621,0, 2025-08-28 09:12:57.756
64,-327.893858665135,-2916.01308510127,-6974.79374056309,-9627.61697613262,0.0160000007599592,0.0480000022798777,0.960000045597553,0,0,0,0,0,1756383177.76981,0, 2025-08-28 09:12:57.769
64,-406.775828530546,-2884.06685967976,-7024.63912717253,-9577.38637982775,0.0160000007599592,0.0480000022798777,0.960000045597553,0,0,0,0,0,1756383177.76981,0, 2025-08-28 09:12:57.769
65,-284.009872585069,-2909.74127287557,-6935.89878102392,-9648.88952708058,0.0160000007599592,0.0480000022798777,0.960000045597553,0,0,0,0,0,1756383177.78559,0, 2025-08-28 09:12:57.785
65,-274.944355092477,-2907.34399700398,-6907.08659176528,-9683.76409416739,0.0160000007599592,0.0480000022798777,0.960000045597553,0,0,0,0,0,1756383177.78559,0, 2025-08-28 09:12:57.785
66,-400.646132503171,-2879.32092663599,-7007.49542577565,-9605.87693769019,0.0160000007599592,0.0480000022798777,0.960000045597553,0,0,0,0,0,1756383177.78623,0, 2025-08-28 09:12:57.786
66,-335.549433874432,-2871.35867963033,-6926.91554133035,-9592.82842674479,0.0160000007599592,0.0480000022798777,0.960000045597553,0,0,0,0,0,1756383177.78623,0, 2025-08-28 09:12:57.786
67,-244.037821858656,-2881.51250801003,-6856.36980846617,-9656.96397108492,0.0160000007599592,0.0480000022798777,0.960000045597553,0,0,0,0,0,1756383177.79983,0, 2025-08-28 09:12:57.799
67,-366.369949409273,-2869.51864885213,-6995.86807681341,-9647.50576409698,0.0160000007599592,0.0480000022798777,0.960000045597553,0,0,0,0,0,1756383177.79983,0, 2025-08-28 09:12:57.799
68,-384.695459192153,-2864.22669041483,-7010.60702253878,-9630.56027739775,0.0160000007599592,0.0480000022798777,0.960000045597553,0,0,0,0,0,1756383177.81548,0, 2025-08-28 09:12:57.815
68,-242.683978074696,-2853.71757153934,-6919.24874642119,-9640.33263598196,0.0160000007599592,0.0480000022798777,0.960000045597553,0,0,0,0,0,1756383177.81548,0, 2025-08-28 09:12:57.815
69,-328.492242658045,-2862.55121523468,-6974.88723806199,-9629.55798420962,0.0160000007599592,0.0480000022798777,0.960000045597553,0,0,0,0,0,1756383177.81621,0, 2025-08-28 09:12:57.816
69,-414.225709242281,-2836.2410190464,-7015.12856158521,-9573.48940407392,0.0160000007599592,0.0480000022798777,0.960000045597553,0,0,0,0,0,1756383177.81621,0, 2025-08-28 09:12:57.816
70,-278.407502451446,-2843.111215265,-6936.94595301151,-9589.63081228267,0.0160000007599592,0.0480000022798777,0.976000046357513,0,0,0,0,0,1756383177.82981,0, 2025-08-28 09:12:57.829
70,-273.216521312948,-2865.80866809608,-6976.93296333775,-9604.87464450207,0.0160000007599592,0.0480000022798777,0.976000046357513,0,0,0,0,0,1756383177.82981,0, 2025-08-28 09:12:57.829
71,-395.672065562103,-2846.95583241945,-7054.86125871446,-9538.88784968387,0.0160000007599592,0.0480000022798777,0.976000046357513,0,0,0,0,0,1756383177.84616,0, 2025-08-28 09:12:57.846
71,-327.287994872313,-2848.90058039641,-7007.15883477964,-9539.39273617789,0.0160000007599592,0.0480000022798777,0.976000046357513,0,0,0,0,0,1756383177.84616,0, 2025-08-28 09:12:57.846
72,-254.322546736803,-2855.70345841581,-6974.69276326429,-9584.80634133983,0.0160000007599592,0.0480000022798777,0.976000046357513,0,0,0,0,0,1756383177.84687,0, 2025-08-28 09:12:57.846
72,-372.207933240104,-2862.44649803592,-7056.57787279412,-9570.22821131256,0.0160000007599592,0.0480000022798777,0.976000046357513,0,0,0,0,0,1756383177.84687,0, 2025-08-28 09:12:57.846
73,-378.685439963359,-2865.05694820499,-7033.96269776207,-9546.27789199632,0.0160000007599592,0.0480000022798777,0.976000046357513,0,0,0,0,0,1756383177.85981,0, 2025-08-28 09:12:57.859
73,-240.529795700218,-2860.07540146401,-6958.6298929546,-9573.53428287338,0.0160000007599592,0.0480000022798777,0.976000046357513,0,0,0,0,0,1756383177.85981,0, 2025-08-28 09:12:57.859
74,-320.167225356679,-2860.35589396069,-7040.68329798244,-9559.68169343751,0.0160000007599592,0.0480000022798777,0.976000046357513,0,0,0,0,0,1756383177.87549,0, 2025-08-28 09:12:57.875
74,-396.158252556343,-2842.29965697462,-7067.48716096487,-9540.20803436823,0.0160000007599592,0.0480000022798777,0.976000046357513,0,0,0,0,0,1756383177.87549,0, 2025-08-28 09:12:57.875
75,-277.446348162834,-2868.72952996148,-6938.19507959671,-9550.29454454873,0.0160000007599592,0.0480000022798777,0.976000046357513,0,0,0,0,0,1756383177.87622,0, 2025-08-28 09:12:57.876
75,-278.500999950338,-2868.78936836077,-6976.88060473837,-9531.56886547059,0.0160000007599592,0.0480000022798777,0.976000046357513,0,0,0,0,0,1756383177.87622,0, 2025-08-28 09:12:57.876
76,-391.34500131337,-2858.57944148174,-7039.38181279786,-9498.86344035808,0.0160000007599592,0.0480000022798777,0.976000046357513,0,0,0,0,0,1756383177.88981,0, 2025-08-28 09:12:57.889
76,-334.449903287459,-2879.79963383032,-7005.40482170042,-9539.78542567324,0.0160000007599592,0.0480000022798777,0.976000046357513,0,0,0,0,0,1756383177.88981,0, 2025-08-28 09:12:57.889
77,-256.55526701035,-2870.73785623768,-6946.00399070419,-9608.73796115629,0.0160000007599592,0.0480000022798777,0.976000046357513,0,0,0,0,0,1756383177.90549,0, 2025-08-28 09:12:57.905
77,-365.999699313659,-2868.46399706462,-7014.32822299469,-9588.38542559743,0.0160000007599592,0.0480000022798777,0.976000046357513,0,0,0,0,0,1756383177.90549,0, 2025-08-28 09:12:57.905
78,-373.030711230356,-2867.06153458124,-7000.80848465487,-9587.79078150448,0.0160000007599592,0.0480000022798777,0.976000046357513,0,0,0,0,0,1756383177.90623,0, 2025-08-28 09:12:57.906
78,-245.735736438539,-2852.12811405817,-6937.7575113019,-9602.57086612936,0.0160000007599592,0.0480000022798777,0.976000046357513,0,0,0,0,0,1756383177.90623,0, 2025-08-28 09:12:57.906
79,-329.146725150291,-2848.10398170585,-7012.15534112044,-9578.99079690874,0.0160000007599592,0.0480000022798777,0.976000046357513,0,0,0,0,0,1756383177.91984,0, 2025-08-28 09:12:57.919
79,-396.636959750671,-2826.52849886147,-7055.56062000617,-9549.87567575369,0.0160000007599592,0.0480000022798777,0.976000046357513,0,0,0,0,0,1756383177.91984,0, 2025-08-28 09:12:57.919
80,-285.158021871466,-2859.09928757558,-7030.09938110784,-9616.15044286847,0.0160000007599592,0.0480000022798777,0.976000046357513,0,0,0,0,0,1756383177.93548,0, 2025-08-28 09:12:57.935
80,-299.773550898302,-2846.234031728,-7096.63968111947,-9619.52009272855,0.0160000007599592,0.0480000022798777,0.976000046357513,0,0,0,0,0,1756383177.93548,0, 2025-08-28 09:12:57.935
81,-396.981030546594,-2821.32629802311,-7166.07840359677,-9562.25100470707,0.0160000007599592,0.0480000022798777,0.976000046357513,0,0,0,0,0,1756383177.93621,0, 2025-08-28 09:12:57.936
81,-331.345786324237,-2840.33994939784,-7131.70124320406,-9573.19769187737,0.0160000007599592,0.0480000022798777,0.976000046357513,0,0,0,0,0,1756383177.93621,0, 2025-08-28 09:12:57.936
82,-264.869064611848,-2834.78245806368,-7139.95520240627,-9613.40909620095,0.0160000007599592,0.0480000022798777,0.976000046357513,0,0,0,0,0,1756383177.94982,0, 2025-08-28 09:12:57.949
82,-365.064724324737,-2828.44706753874,-7203.84391334932,-9553.42484081164,0.0160000007599592,0.0480000022798777,0.976000046357513,0,0,0,0,0,1756383177.94982,0, 2025-08-28 09:12:57.949
83,-365.438714320306,-2853.51935684169,-7201.31200107932,-9577.1283267308,0.0160000007599592,0.0480000022798777,0.976000046357513,0,0,0,0,0,1756383177.96548,0, 2025-08-28 09:12:57.965
83,-258.529934186954,-2849.65604018746,-7206.50298221782,-9643.98277833872,0.0160000007599592,0.0480000022798777,0.976000046357513,0,0,0,0,0,1756383177.96548,0, 2025-08-28 09:12:57.965
84,-339.509987927508,-2841.57411638321,-7277.92385167163,-9593.93917703163,0.0160000007599592,0.0480000022798777,0.976000046357513,0,0,0,0,0,1756383177.96621,0, 2025-08-28 09:12:57.966
84,-386.131580775138,-2844.89140764391,-7280.52682204079,-9588.60607969482,0.0160000007599592,0.0480000022798777,0.976000046357513,0,0,0,0,0,1756383177.96621,0, 2025-08-28 09:12:57.966
85,-285.66664826544,-2858.1269135871,-7217.78252048418,-9663.78928850405,0.0160000007599592,0.0480000022798777,0.976000046357513,0,0,0,0,0,1756383177.97981,0, 2025-08-28 09:12:57.979
85,-308.670772892889,-2844.44635954918,-7285.56820718106,-9645.36654132232,0.0160000007599592,0.0480000022798777,0.976000046357513,0,0,0,0,0,1756383177.97981,0, 2025-08-28 09:12:57.979
86,-383.263077509124,-2843.84049575636,-7329.29137756303,-9591.61295925919,0.0160000007599592,0.0480000022798777,0.976000046357513,0,0,0,0,0,1756383177.99548,0, 2025-08-28 09:12:57.995
86,-331.177490826231,-2857.70804479206,-7268.79101597983,-9641.54810346756,0.0160000007599592,0.0480000022798777,0.976000046357513,0,0,0,0,0,1756383177.99548,0, 2025-08-28 09:12:57.995
87,-270.916482840199,-2837.17599403532,-7227.06121227425,-9642.43819965702,0.0160000007599592,0.0480000022798777,0.976000046357513,0,0,0,0,0,1756383177.99619,0, 2025-08-28 09:12:57.996
87,-370.465139860753,-2838.52609791933,-7296.30545995384,-9606.88671067823,0.0160000007599592,0.0480000022798777,0.976000046357513,0,0,0,0,0,1756383177.99619,0, 2025-08-28 09:12:57.996
88,-361.294905169401,-2865.8498069956,-7279.49834955297,-9635.13791494351,0.0160000007599592,0.0480000022798777,0.976000046357513,0,0,0,0,0,1756383178.00981,0, 2025-08-28 09:12:58.009
88,-276.85918386979,-2869.32791395439,-7275.26104290318,-9675.71208956279,0.0160000007599592,0.0480000022798777,0.976000046357513,0,0,0,0,0,1756383178.00981,0, 2025-08-28 09:12:58.009
89,-344.113804772962,-2846.00589783071,-7329.77756455727,-9591.26888846327,0.0160000007599592,0.0480000022798777,0.976000046357513,0,0,0,0,0,1756383178.02545,0, 2025-08-28 09:12:58.025
89,-381.408087131102,-2870.42744454136,-7307.74207401834,-9570.4526053099,0.0160000007599592,0.0480000022798777,0.976000046357513,0,0,0,0,0,1756383178.02545,0, 2025-08-28 09:12:58.025
90,-295.771857945714,-2877.0246280632,-7238.17993484251,-9618.10267064534,0.0160000007599592,0.0480000022798777,0.976000046357513,0,0,0,0,0,1756383178.0262,0, 2025-08-28 09:12:58.026
90,-318.158899080474,-2859.02448957646,-7250.27103139926,-9588.89779189136,0.0160000007599592,0.0480000022798777,0.976000046357513,0,0,0,0,0,1756383178.0262,0, 2025-08-28 09:12:58.026
91,-393.876913583372,-2855.44914521882,-7278.9560640594,-9522.35375197977,0.0160000007599592,0.0480000022798777,0.976000046357513,0,0,0,0,0,1756383178.0398,0, 2025-08-28 09:12:58.039
91,-329.333720148075,-2898.20368151227,-7242.17414799519,-9581.83686077502,0.0160000007599592,0.0480000022798777,0.976000046357513,0,0,0,0,0,1756383178.0398,0, 2025-08-28 09:12:58.039
92,-286.885855650995,-2877.16300436156,-7251.63235498313,-9585.46082383208,0.0160000007599592,0.0480000022798777,0.976000046357513,0,0,0,0,0,1756383178.05661,0, 2025-08-28 09:12:58.056
92,-373.56551692402,-2877.62675195606,-7317.25263960566,-9544.53135871701,0.0160000007599592,0.0480000022798777,0.976000046357513,0,0,0,0,0,1756383178.05661,0, 2025-08-28 09:12:58.056
93,-370.210826663766,-2910.64258876489,-7298.79249342438,-9565.02601047419,0.0160000007599592,0.0480000022798777,0.976000046357513,0,0,0,0,0,1756383178.0705,0, 2025-08-28 09:12:58.070
93,-286.313650957774,-2876.04477427481,-7237.2524396535,-9573.6427399721,0.0160000007599592,0.0480000022798777,0.976000046357513,0,0,0,0,0,1756383178.0705,0, 2025-08-28 09:12:58.070
94,-359.724147188012,-2877.85114595341,-7275.68739149813,-9504.51068929117,0.0160000007599592,0.0480000022798777,0.976000046357513,0,0,0,0,0,1756383178.07124,0, 2025-08-28 09:12:58.071
94,-399.221230620053,-2875.89143837662,-7230.35980403516,-9495.87900019344,0.0160000007599592,0.0480000022798777,0.976000046357513,0,0,0,0,0,1756383178.07124,0, 2025-08-28 09:12:58.071
95,-311.673912557308,-2889.59817171423,-7143.21639516763,-9575.62488694862,0.0160000007599592,0.0480000022798777,0.976000046357513,0,0,0,0,0,1756383178.08545,0, 2025-08-28 09:12:58.085
95,-333.58972629765,-2846.12931452924,-7066.7840597732,-9510.61794591881,0.0160000007599592,0.0480000022798777,0.976000046357513,0,0,0,0,0,1756383178.08545,0, 2025-08-28 09:12:58.085
96,-394.209764679428,-2863.95741761802,-7062.73748802114,-9514.07361347787,0.0160000007599592,0.0480000022798777,0.976000046357513,0,0,0,0,0,1756383178.08619,0, 2025-08-28 09:12:58.086
96,-334.962269581389,-2888.60709822597,-7016.55720336828,-9584.23413664661,0.0160000007599592,0.0480000022798777,0.976000046357513,0,0,0,0,0,1756383178.08619,0, 2025-08-28 09:12:58.086
97,-299.586555900518,-2863.63952612178,-7057.37821138464,-9600.3306660559,0.0160000007599592,0.0480000022798777,0.976000046357513,0,0,0,0,0,1756383178.0998,0, 2025-08-28 09:12:58.099
97,-373.823570020962,-2835.57531685429,-7103.5921551371,-9556.47285927553,0.0160000007599592,0.0480000022798777,0.976000046357513,0,0,0,0,0,1756383178.0998,0, 2025-08-28 09:12:58.099
98,-354.499506949913,-2854.83954152605,-7081.26495240163,-9629.58416350931,0.0160000007599592,0.0480000022798777,0.976000046357513,0,0,0,0,0,1756383178.1155,0, 2025-08-28 09:12:58.115
98,-285.240299670491,-2825.69824107131,-7069.08035834599,-9637.87178181112,0.0160000007599592,0.0480000022798777,0.976000046357513,0,0,0,0,0,1756383178.1155,0, 2025-08-28 09:12:58.115
99,-346.473681645002,-2813.06859892094,-7126.7944944622,-9542.29863844346,0.0160000007599592,0.0480000022798777,0.976000046357513,0,0,0,0,0,1756383178.11615,0, 2025-08-28 09:12:58.116
99,-371.912481143605,-2829.18008793006,-7120.85553333256,-9556.5850562742,0.0160000007599592,0.0480000022798777,0.976000046357513,0,0,0,0,0,1756383178.11615,0, 2025-08-28 09:12:58.116
100,-298.894674408715,-2841.80973008042,-7100.98918476794,-9661.87445972674,0.0160000007599592,0.0480000022798777,0.976000046357513,0,0,0,0,0,1756383178.13065,0, 2025-08-28 09:12:58.130
100,-320.264462755527,-2805.48408181081,-7155.55806502141,-9598.09794578236,0.0160000007599592,0.0480000022798777,0.976000046357513,0,0,0,0,0,1756383178.13065,0, 2025-08-28 09:12:58.130
0,-384.987171388697,-2825.2344934768,-7197.89186256984,-9580.38390964223,0.0160000007599592,0.0480000022798777,0.976000046357513,0,0,0,0,0,1756383178.13127,0, 2025-08-28 09:12:58.131
1,-319.729657061864,-2832.07477049576,-7121.74001967208,-9615.0340827317,0.0160000007599592,0.0480000022798777,0.976000046357513,0,0,0,0,0,1756383178.1448,0, 2025-08-28 09:12:58.144
1,-289.743139217142,-2782.65573248127,-7089.93965034885,-9584.67357489141,0.0160000007599592,0.0480000022798777,0.976000046357513,0,0,0,0,0,1756383178.1448,0, 2025-08-28 09:12:58.144
2,-363.965193737764,-2803.81234653061,-7133.34118933464,-9539.43200512743,0.0160000007599592,0.0480000022798777,0.976000046357513,0,0,0,0,0,1756383178.16054,0, 2025-08-28 09:12:58.160
2,-351.156036389526,-2843.99009175459,-7073.24847684661,-9594.63666837337,0.0160000007599592,0.0480000022798777,0.976000046357513,0,0,0,0,0,1756383178.16054,0, 2025-08-28 09:12:58.160
3,-275.550218885299,-2807.28297368949,-7007.45615682611,-9631.23532933975,0.0160000007599592,0.0480000022798777,0.976000046357513,0,0,0,0,0,1756383178.16127,0, 2025-08-28 09:12:58.161
3,-339.790480424184,-2808.4049436762,-7092.95026981318,-9544.98575656163,0.0160000007599592,0.0480000022798777,0.976000046357513,0,0,0,0,0,1756383178.16127,0, 2025-08-28 09:12:58.161
4,-366.291411510203,-2834.10179627174,-7094.85387889063,-9541.33561420487,0.0160000007599592,0.0480000022798777,0.976000046357513,0,0,0,0,0,1756383178.17482,0, 2025-08-28 09:12:58.174
4,-287.760992240626,-2817.95664816303,-7041.79591821926,-9577.97167417081,0.0160000007599592,0.0480000022798777,0.976000046357513,0,0,0,0,0,1756383178.17482,0, 2025-08-28 09:12:58.174
5,-313.659799433779,-2789.04348160559,-7090.55299394159,-9485.1548370705,0.0160000007599592,0.0480000022798777,0.976000046357513,0,0,0,0,0,1756383178.19055,0, 2025-08-28 09:12:58.190
5,-366.478406507988,-2808.50966087496,-7079.883059368,-9450.41864628205,0.0160000007599592,0.0480000022798777,0.976000046357513,0,0,0,0,0,1756383178.19055,0, 2025-08-28 09:12:58.190
6,-319.019076070283,-2841.20760618756,-6986.01157048019,-9469.9371841508,0.0160000007599592,0.0480000022798777,0.976000046357513,0,0,0,0,0,1756383178.19124,0, 2025-08-28 09:12:58.191
6,-299.941846396308,-2805.5439202101,-6992.40305950446,-9430.91880791308,0.0160000007599592,0.0480000022798777,0.976000046357513,0,0,0,0,0,1756383178.19124,0, 2025-08-28 09:12:58.191
7,-357.274512717035,-2805.81693290686,-7051.20176660782,-9364.74501809711,0.0160000007599592,0.0480000022798777,0.976000046357513,0,0,0,0,0,1756383178.20474,0, 2025-08-28 09:12:58.204
7,-349.387063710485,-2848.76594399801,-7002.02582209045,-9427.81843084982,0.0160000007599592,0.0480000022798777,0.976000046357513,0,0,0,0,0,1756383178.20474,0, 2025-08-28 09:12:58.204
8,-292.043177689891,-2846.18541302858,-6973.93169362331,-9438.76137812017,0.0160000007599592,0.0480000022798777,0.976000046357513,0,0,0,0,0,1756383178.22052,0, 2025-08-28 09:12:58.220
8,-359.23048039386,-2822.93445500405,-7012.68453696417,-9352.36968914373,0.0160000007599592,0.0480000022798777,0.976000046357513,0,0,0,0,0,1756383178.22052,0, 2025-08-28 09:12:58.220
9,-375.944093295839,-2867.23730987916,-6998.012909438,-9386.15220544348,0.0160000007599592,0.0480000022798777,0.976000046357513,0,0,0,0,0,1756383178.22126,0, 2025-08-28 09:12:58.221
9,-304.953312336933,-2809.30999946548,-6931.13227853039,-9431.93980060099,0.0160000007599592,0.0480000022798777,0.976000046357513,0,0,0,0,0,1756383178.22126,0, 2025-08-28 09:12:58.221
10,-327.781661666464,-2756.96261978569,-6928.33109346358,-9354.66598771652,0.0160000007599592,0.0480000022798777,0.976000046357513,0,0,0,0,0,1756383178.2348,0, 2025-08-28 09:12:58.234
10,-359.439914791379,-2770.3813808267,-6924.88664560439,-9371.88448711252,0.0160000007599592,0.0480000022798777,0.976000046357513,0,0,0,0,0,1756383178.2348,0, 2025-08-28 09:12:58.234
11,-313.700938333292,-2825.27937227627,-6869.01254026638,-9497.04023912968,0.0160000007599592,0.0480000022798777,0.976000046357513,0,0,0,0,0,1756383178.25052,0, 2025-08-28 09:12:58.250
11,-306.669926416595,-2783.2952553737,-6896.47836554097,-9467.58478707867,0.0160000007599592,0.0480000022798777,0.976000046357513,0,0,0,0,0,1756383178.25052,0, 2025-08-28 09:12:58.250
12,-351.874097181018,-2774.4578717784,-6915.99316350976,-9403.75217463495,0.0160000007599592,0.0480000022798777,0.976000046357513,0,0,0,0,0,1756383178.25126,0, 2025-08-28 09:12:58.251
12,-318.368333477993,-2809.69146926096,-6867.79707278078,-9479.74320183462,0.0160000007599592,0.0480000022798777,0.976000046357513,0,0,0,0,0,1756383178.25126,0, 2025-08-28 09:12:58.251
13,-264.756867613178,-2782.52483598283,-6881.45144751901,-9477.42072396213,0.0160000007599592,0.0480000022798777,0.976000046357513,0,0,0,0,0,1756383178.26477,0, 2025-08-28 09:12:58.264
13,-326.753189178649,-2753.00580563256,-6927.88604536885,-9401.06318656681,0.0160000007599592,0.0480000022798777,0.976000046357513,0,0,0,0,0,1756383178.26477,0, 2025-08-28 09:12:58.264
14,-337.318406553473,-2785.25122305052,-6860.97923516156,-9425.84376367321,0.0160000007599592,0.0480000022798777,0.976000046357513,0,0,0,0,0,1756383178.28058,0, 2025-08-28 09:12:58.280
14,-250.332073484082,-2780.98399720108,-6803.295018245,-9502.19382126862,0.0160000007599592,0.0480000022798777,0.976000046357513,0,0,0,0,0,1756383178.28058,0, 2025-08-28 09:12:58.280
15,-295.45396644948,-2737.46652131667,-6825.53246338153,-9440.21245930297,0.0160000007599592,0.0480000022798777,0.976000046357513,0,0,0,0,0,1756383178.28126,0, 2025-08-28 09:12:58.281
15,-340.856351911556,-2752.64677523682,-6831.52004321059,-9451.51443696907,0.0160000007599592,0.0480000022798777,0.976000046357513,0,0,0,0,0,1756383178.28126,0, 2025-08-28 09:12:58.281
16,-278.818891446572,-2761.53277753154,-6752.47351774713,-9556.85245912103,0.0160000007599592,0.0480000022798777,0.976000046357513,0,0,0,0,0,1756383178.29476,0, 2025-08-28 09:12:58.294
16,-320.941384647507,-2729.57533241017,-6744.31679594377,-9525.64673389075,0.0160000007599592,0.0480000022798777,0.976000046357513,0,0,0,0,0,1756383178.29476,0, 2025-08-28 09:12:58.294
17,-459.86744830152,-2740.15176948486,-6807.61460269382,-9458.29113568878,0.0160000007599592,0.0480000022798777,0.976000046357513,0,0,0,0,0,1756383178.31052,0, 2025-08-28 09:12:58.310
17,-381.026617335621,-2792.99655585876,-6794.44641494984,-9511.98113945266,0.0160000007599592,0.0480000022798777,0.976000046357513,0,0,0,0,0,1756383178.31052,0, 2025-08-28 09:12:58.310
18,-309.325255385134,-2794.41397794196,-6742.54782326473,-9512.66928104451,0.0160000007599592,0.0480000022798777,0.976000046357513,0,0,0,0,0,1756383178.31122,0, 2025-08-28 09:12:58.311
18,-363.086317248177,-2782.77914917981,-6770.51105523342,-9425.77644547401,0.0160000007599592,0.0480000022798777,0.976000046357513,0,0,0,0,0,1756383178.31122,0, 2025-08-28 09:12:58.311
19,-363.501446143258,-2849.13245419366,-6755.70479130885,-9476.29501407547,0.0160000007599592,0.0480000022798777,0.976000046357513,0,0,0,0,0,1756383178.32484,0, 2025-08-28 09:12:58.324
19,-292.129195388872,-2857.22185779782,-6690.05458748667,-9493.9660413661,0.0160000007599592,0.0480000022798777,0.976000046357513,0,0,0,0,0,1756383178.32484,0, 2025-08-28 09:12:58.324
20,-329.027048351709,-2828.50316603808,-6706.41664979281,-9399.05112039065,0.0160000007599592,0.0480000022798777,0.976000046357513,0,0,0,0,0,1756383178.34051,0, 2025-08-28 09:12:58.340
20,-360.659122176934,-2879.06287353905,-6727.77521843975,-9449.55846929224,0.0160000007599592,0.0480000022798777,0.976000046357513,0,0,0,0,0,1756383178.34051,0, 2025-08-28 09:12:58.340
21,-320.885286148172,-2904.42313513858,-6659.61928164726,-9558.61769190012,0.0160000007599592,0.0480000022798777,0.976000046357513,0,0,0,0,0,1756383178.34127,0, 2025-08-28 09:12:58.341
21,-302.477498566266,-2844.83530914457,-6643.38811583957,-9469.66043155408,0.0160000007599592,0.0480000022798777,0.976000046357513,0,0,0,0,0,1756383178.34127,0, 2025-08-28 09:12:58.341
22,-346.148310348857,-2826.57337766094,-6689.03733469872,-9406.19806920597,0.0160000007599592,0.0480000022798777,0.976000046357513,0,0,0,0,0,1756383178.35485,0, 2025-08-28 09:12:58.354
22,-316.128133404534,-2858.78887587925,-6633.39136325801,-9458.16023919033,0.0160000007599592,0.0480000022798777,0.976000046357513,0,0,0,0,0,1756383178.35485,0, 2025-08-28 09:12:58.354
23,-274.402069598902,-2831.28191170515,-6590.53958956571,-9453.03283635108,0.0160000007599592,0.0480000022798777,0.976000046357513,0,0,0,0,0,1756383178.37049,0, 2025-08-28 09:12:58.370
23,-333.900137993973,-2822.20891441265,-6652.69672682928,-9403.20614924142,0.0160000007599592,0.0480000022798777,0.976000046357513,0,0,0,0,0,1756383178.37049,0, 2025-08-28 09:12:58.370
24,-340.961069110315,-2860.87947995448,-6635.11919703754,-9484.15254388237,0.0160000007599592,0.0480000022798777,0.976000046357513,0,0,0,0,0,1756383178.37121,0, 2025-08-28 09:12:58.371
24,-284.537198478822,-2858.86741377832,-6611.18383732112,-9529.76810364192,0.0160000007599592,0.0480000022798777,0.976000046357513,0,0,0,0,0,1756383178.37121,0, 2025-08-28 09:12:58.371
25,-316.670418898109,-2821.1580025251,-6693.95156324049,-9455.71434461931,0.0160000007599592,0.0480000022798777,0.976000046357513,0,0,0,0,0,1756383178.38484,0, 2025-08-28 09:12:58.384
25,-351.339291487355,-2824.46781398589,-6724.44296757923,-9443.58584906301,0.0160000007599592,0.0480000022798777,0.976000046357513,0,0,0,0,0,1756383178.38484,0, 2025-08-28 09:12:58.384
26,-301.396667479072,-2856.1597262104,-6630.54155949177,-9504.82671083743,0.0160000007599592,0.0480000022798777,0.976000046357513,0,0,0,0,0,1756383178.40053,0, 2025-08-28 09:12:58.400
26,-286.463246956002,-2817.24232727149,-6618.9927484286,-9430.96742661251,0.0160000007599592,0.0480000022798777,0.976000046357513,0,0,0,0,0,1756383178.40053,0, 2025-08-28 09:12:58.400
27,-332.108725915197,-2810.31977245351,-6642.0267922557,-9372.96531819971,0.0160000007599592,0.0480000022798777,0.976000046357513,0,0,0,0,0,1756383178.40126,0, 2025-08-28 09:12:58.401
27,-309.452411983628,-2851.14826026978,-6574.66745415377,-9434.03040467622,0.0160000007599592,0.0480000022798777,0.976000046357513,0,0,0,0,0,1756383178.40126,0, 2025-08-28 09:12:58.401
28,-270.430295845959,-2814.20178860752,-6544.57621911028,-9445.41092024138,0.0160000007599592,0.0480000022798777,0.976000046357513,0,0,0,0,0,1756383178.41484,0, 2025-08-28 09:12:58.414
28,-323.981923311483,-2798.68868359132,-6607.44019746548,-9365.85576838395,0.0160000007599592,0.0480000022798777,0.976000046357513,0,0,0,0,0,1756383178.41484,0, 2025-08-28 09:12:58.414
29,-341.60807180265,-2839.93604020262,-6610.83602662524,-9422.66484871088,0.0160000007599592,0.0480000022798777,0.976000046357513,0,0,0,0,0,1756383178.43116,0, 2025-08-28 09:12:58.431
29,-277.876436657738,-2848.56772930035,-6593.0640220358,-9493.04602597701,0.0160000007599592,0.0480000022798777,0.976000046357513,0,0,0,0,0,1756383178.43116,0, 2025-08-28 09:12:58.431
30,-310.177952575032,-2805.00911451643,-6619.71080922009,-9439.28870401392,0.0160000007599592,0.0480000022798777,0.976000046357513,0,0,0,0,0,1756383178.43194,0, 2025-08-28 09:12:58.431
30,-345.086178761441,-2827.2689990527,-6633.16322936071,-9421.5653181239,0.0160000007599592,0.0480000022798777,0.976000046357513,0,0,0,0,0,1756383178.43194,0, 2025-08-28 09:12:58.431
31,-290.292904510628,-2850.64711367572,-6531.37811216666,-9480.11345193023,0.0160000007599592,0.0480000022798777,0.976000046357513,0,0,0,0,0,1756383178.44479,0, 2025-08-28 09:12:58.444
31,-278.81141164666,-2799.12625188613,-6539.13840457471,-9429.60236312868,0.0160000007599592,0.0480000022798777,0.976000046357513,0,0,0,0,0,1756383178.44479,0, 2025-08-28 09:12:58.444
32,-335.111865579616,-2825.9188951687,-6621.69295619661,-9392.34921967005,0.0160000007599592,0.0480000022798777,0.976000046357513,0,0,0,0,0,1756383178.46049,0, 2025-08-28 09:12:58.460
32,-295.667140746955,-2859.20774467429,-6598.04182887683,-9484.46669547865,0.0160000007599592,0.0480000022798777,0.976000046357513,0,0,0,0,0,1756383178.46049,0, 2025-08-28 09:12:58.460
33,-254.606779133435,-2820.51473973272,-6557.68082855502,-9471.24240923533,0.0160000007599592,0.0480000022798777,0.976000046357513,0,0,0,0,0,1756383178.46122,0, 2025-08-28 09:12:58.461
33,-304.983231536578,-2792.79460126115,-6585.13543412974,-9391.14871178428,0.0160000007599592,0.0480000022798777,0.976000046357513,0,0,0,0,0,1756383178.46122,0, 2025-08-28 09:12:58.461
34,-315.174458915833,-2839.00854501361,-6565.44860076299,-9449.75294408994,0.0160000007599592,0.0480000022798777,0.976000046357513,0,0,0,0,0,1756383178.47481,0, 2025-08-28 09:12:58.474
34,-262.770980736706,-2860.54288895847,-6528.49464930082,-9491.73706099251,0.0160000007599592,0.0480000022798777,0.976000046357513,0,0,0,0,0,1756383178.47481,0, 2025-08-28 09:12:58.474
35,-300.899260784965,-2813.82031881204,-6581.60870847153,-9419.49715344841,0.0160000007599592,0.0480000022798777,0.976000046357513,0,0,0,0,0,1756383178.49052,0, 2025-08-28 09:12:58.490
35,-337.999068345409,-2846.53322372446,-6637.81566490559,-9400.94350976823,0.0160000007599592,0.0480000022798777,0.976000046357513,0,0,0,0,0,1756383178.49052,0, 2025-08-28 09:12:58.490
36,-297.660507423338,-2875.95875657583,-6589.17826598184,-9481.78892711038,0.0160000007599592,0.0480000022798777,0.976000046357513,0,0,0,0,0,1756383178.49122,0, 2025-08-28 09:12:58.491
36,-295.958852943499,-2832.63201558916,-6620.91505700583,-9438.09567592805,0.0160000007599592,0.0480000022798777,0.976000046357513,0,0,0,0,0,1756383178.49122,0, 2025-08-28 09:12:58.491
37,-354.783739346545,-2855.5015038182,-6651.04743094882,-9401.08562596654,0.0160000007599592,0.0480000022798777,0.976000046357513,0,0,0,0,0,1756383178.50486,0, 2025-08-28 09:12:58.504
37,-338.747048336547,-2903.70881424705,-6615.98960876418,-9483.0530132954,0.0160000007599592,0.0480000022798777,0.976000046357513,0,0,0,0,0,1756383178.50486,0, 2025-08-28 09:12:58.504
38,-301.617321576457,-2864.06213481678,-6595.45755800745,-9494.67662235769,0.0160000007599592,0.0480000022798777,0.976000046357513,0,0,0,0,0,1756383178.52046,0, 2025-08-28 09:12:58.520
38,-351.006440391298,-2836.5028120433,-6627.13825053209,-9394.1518514487,0.0160000007599592,0.0480000022798777,0.976000046357513,0,0,0,0,0,1756383178.52046,0, 2025-08-28 09:12:58.520
39,-345.306832858827,-2878.36351224733,-6616.54685385758,-9434.81204376696,0.0160000007599592,0.0480000022798777,0.976000046357513,0,0,0,0,0,1756383178.5212,0, 2025-08-28 09:12:58.521
39,-288.916621326935,-2864.50344301155,-6564.77915867092,-9508.20010059746,0.0160000007599592,0.0480000022798777,0.976000046357513,0,0,0,0,0,1756383178.5212,0, 2025-08-28 09:12:58.521
40,-334.812673583161,-2840.96077279048,-6598.80850836774,-9424.51235928899,0.0160000007599592,0.0480000022798777,0.976000046357513,0,0,0,0,0,1756383178.53482,0, 2025-08-28 09:12:58.534
40,-357.465247614775,-2860.64386625728,-6605.94049758324,-9412.83265172737,0.0160000007599592,0.0480000022798777,0.976000046357513,0,0,0,0,0,1756383178.53482,0, 2025-08-28 09:12:58.534
41,-315.436251912732,-2894.26556685893,-6557.34423755901,-9495.62281704647,0.0160000007599592,0.0480000022798777,0.976000046357513,0,0,0,0,0,1756383178.55045,0, 2025-08-28 09:12:58.550
41,-314.864047219511,-2853.37724064337,-6577.57709631929,-9450.46352508152,0.0160000007599592,0.0480000022798777,0.976000046357513,0,0,0,0,0,1756383178.55045,0, 2025-08-28 09:12:58.550
42,-369.975212966558,-2854.10278123477,-6627.13077073218,-9404.67966982396,0.0160000007599592,0.0480000022798777,0.976000046357513,0,0,0,0,0,1756383178.55122,0, 2025-08-28 09:12:58.551
42,-347.689149130601,-2894.37028405769,-6553.78385280119,-9493.78278626828,0.0160000007599592,0.0480000022798777,0.976000046357513,0,0,0,0,0,1756383178.55122,0, 2025-08-28 09:12:58.551
43,-311.546755958814,-2852.61804095237,-6560.84478391754,-9490.50663390709,0.0160000007599592,0.0480000022798777,0.976000046357513,0,0,0,0,0,1756383178.56478,0, 2025-08-28 09:12:58.564
43,-364.967486925889,-2835.74735225225,-6621.55083999829,-9408.53176677832,0.0160000007599592,0.0480000022798777,0.976000046357513,0,0,0,0,0,1756383178.56478,0, 2025-08-28 09:12:58.564
44,-359.952281085309,-2889.0184872211,-6605.90683848364,-9455.14213992609,0.0160000007599592,0.0480000022798777,0.976000046357513,0,0,0,0,0,1756383178.58046,0, 2025-08-28 09:12:58.580
44,-284.114589783829,-2883.43107668729,-6559.49468003353,-9532.16537951352,0.0160000007599592,0.0480000022798777,0.976000046357513,0,0,0,0,0,1756383178.58046,0, 2025-08-28 09:12:58.580
45,-354.7538201469,-2851.90745996078,-6606.81563417288,-9447.41550661763,0.0160000007599592,0.0480000022798777,0.976000046357513,0,0,0,0,0,1756383178.58122,0, 2025-08-28 09:12:58.581
45,-369.403008273337,-2898.28969921125,-6630.11147099687,-9452.0941214622,0.0160000007599592,0.0480000022798777,0.976000046357513,0,0,0,0,0,1756383178.58122,0, 2025-08-28 09:12:58.581
46,-324.756082602311,-2894.78915285273,-6554.43459539348,-9508.11782279843,0.0160000007599592,0.0480000022798777,0.976000046357513,0,0,0,0,0,1756383178.59481,0, 2025-08-28 09:12:58.594
46,-321.513589340728,-2831.28191170515,-6558.17823524913,-9476.10427917773,0.0160000007599592,0.0480000022798777,0.976000046357513,0,0,0,0,0,1756383178.59481,0, 2025-08-28 09:12:58.594
47,-370.263185263146,-2827.51957234973,-6597.04701548861,-9437.7029864327,0.0160000007599592,0.0480000022798777,0.976000046357513,0,0,0,0,0,1756383178.61122,0, 2025-08-28 09:12:58.611
47,-342.554266491439,-2860.27735606162,-6560.16786202556,-9526.74252457777,0.0160000007599592,0.0480000022798777,0.976000046357513,0,0,0,0,0,1756383178.61122,0, 2025-08-28 09:12:58.611
48,-307.156113410834,-2803.88340462977,-6540.59696555743,-9497.20853462769,0.0160000007599592,0.0480000022798777,0.976000046357513,0,0,0,0,0,1756383178.61195,0, 2025-08-28 09:12:58.611
48,-365.21806022292,-2771.75766401039,-6579.21891239984,-9394.58941974351,0.0160000007599592,0.0480000022798777,0.976000046357513,0,0,0,0,0,1756383178.61195,0, 2025-08-28 09:12:58.611
49,-364.062431136612,-2818.73080745386,-6555.95673467545,-9427.30606455589,0.0160000007599592,0.0480000022798777,0.976000046357513,0,0,0,0,0,1756383178.62478,0, 2025-08-28 09:12:58.624
49,-298.857275409158,-2813.85397791164,-6564.38646917557,-9470.86093943985,0.0160000007599592,0.0480000022798777,0.976000046357513,0,0,0,0,0,1756383178.62478,0, 2025-08-28 09:12:58.624
50,-348.253874023911,-2776.12212725868,-6645.99856600864,-9368.9150065477,0.0160000007599592,0.0480000022798777,0.976000046357513,0,0,0,0,0,1756383178.64049,0, 2025-08-28 09:12:58.640
50,-372.125655441079,-2807.28297368949,-6723.10034349514,-9368.6868726504,0.0160000007599592,0.0480000022798777,0.976000046357513,0,0,0,0,0,1756383178.64049,0, 2025-08-28 09:12:58.640
51,-324.004362711217,-2843.2720309631,-6676.95745784184,-9454.84668782959,0.0160000007599592,0.0480000022798777,0.976000046357513,0,0,0,0,0,1756383178.64119,0, 2025-08-28 09:12:58.641
51,-323.110526621807,-2794.9936624351,-6710.19768864801,-9418.10965056485,0.0160000007599592,0.0480000022798777,0.976000046357513,0,0,0,0,0,1756383178.64119,0, 2025-08-28 09:12:58.641
52,-369.272111774888,-2784.33868746134,-6768.10629956191,-9367.74815776153,0.0160000007599592,0.0480000022798777,0.976000046357513,0,0,0,0,0,1756383178.65483,0, 2025-08-28 09:12:58.654
52,-342.819799388293,-2833.35755618056,-6719.4576809383,-9463.08568743197,0.0160000007599592,0.0480000022798777,0.976000046357513,0,0,0,0,0,1756383178.65483,0, 2025-08-28 09:12:58.654
53,-296.923747132067,-2813.59218491474,-6704.75987411244,-9470.15409834823,0.0160000007599592,0.0480000022798777,0.976000046357513,0,0,0,0,0,1756383178.6705,0, 2025-08-28 09:12:58.670
53,-349.39080361044,-2774.6186874765,-6726.17080135876,-9366.39057407761,0.0160000007599592,0.0480000022798777,0.976000046357513,0,0,0,0,0,1756383178.6705,0, 2025-08-28 09:12:58.670
54,-342.602885190863,-2813.21445501922,-6692.51918155747,-9414.46324810805,0.0160000007599592,0.0480000022798777,0.976000046357513,0,0,0,0,0,1756383178.67119,0, 2025-08-28 09:12:58.671
54,-296.134628241416,-2819.59472434362,-6669.74319082731,-9452.69250545511,0.0160000007599592,0.0480000022798777,0.976000046357513,0,0,0,0,0,1756383178.67119,0, 2025-08-28 09:12:58.671
55,-339.498768227641,-2802.3276062482,-6746.11942772241,-9374.65949287964,0.0160000007599592,0.0480000022798777,0.976000046357513,0,0,0,0,0,1756383178.68478,0, 2025-08-28 09:12:58.684
55,-360.629202977289,-2825.61222337233,-6789.16941611236,-9372.12758060964,0.0160000007599592,0.0480000022798777,0.976000046357513,0,0,0,0,0,1756383178.68478,0, 2025-08-28 09:12:58.684
56,-311.299922561739,-2841.78355078073,-6742.525383865,-9424.69187448686,0.0160000007599592,0.0480000022798777,0.976000046357513,0,0,0,0,0,1756383178.7005,0, 2025-08-28 09:12:58.700
56,-311.752450456377,-2790.59180018725,-6773.60395249678,-9360.67600694532,0.0160000007599592,0.0480000022798777,0.976000046357513,0,0,0,0,0,1756383178.7005,0, 2025-08-28 09:12:58.700
57,-355.071711643133,-2799.67975707958,-6791.77986628143,-9308.56424096273,0.0160000007599592,0.0480000022798777,0.976000046357513,0,0,0,0,0,1756383178.70122,0, 2025-08-28 09:12:58.701
57,-329.54689444555,-2858.21667118603,-6765.77260198956,-9395.12796533713,0.0160000007599592,0.0480000022798777,0.976000046357513,0,0,0,0,0,1756383178.70122,0, 2025-08-28 09:12:58.701
58,-285.943400862161,-2806.06750620389,-6746.998304212,-9400.18057017727,0.0160000007599592,0.0480000022798777,0.976000046357513,0,0,0,0,0,1756383178.71478,0, 2025-08-28 09:12:58.714
58,-348.227694724221,-2796.59059971618,-6800.20212098165,-9325.87623785762,0.0160000007599592,0.0480000022798777,0.976000046357513,0,0,0,0,0,1756383178.71478,0, 2025-08-28 09:12:58.714
59,-336.525547762867,-2823.45804099785,-6761.12390634464,-9365.69495268585,0.0160000007599592,0.0480000022798777,0.976000046357513,0,0,0,0,0,1756383178.73043,0, 2025-08-28 09:12:58.730
59,-285.532011867035,-2812.91526302276,-6715.15679598926,-9417.88525656751,0.0160000007599592,0.0480000022798777,0.976000046357513,0,0,0,0,0,1756383178.73043,0, 2025-08-28 09:12:58.730
60,-322.082054133993,-2761.24854513491,-6763.41272511752,-9335.76827324042,0.0160000007599592,0.0480000022798777,0.976000046357513,0,0,0,0,0,1756383178.73121,0, 2025-08-28 09:12:58.731
60,-351.39538998669,-2786.21237733914,-6825.27441028459,-9356.27788459743,0.0160000007599592,0.0480000022798777,0.976000046357513,0,0,0,0,0,1756383178.73121,0, 2025-08-28 09:12:58.731
61,-307.459045307245,-2804.93431651732,-6660.94881608151,-9418.09469096502,0.0160000007599592,0.0320000015199184,0.976000046357513,0,0,0,0,0,1756383178.74481,0, 2025-08-28 09:12:58.744
61,-298.228972216602,-2739.10085759731,-6654.67700385582,-9336.98000082607,0.0160000007599592,0.0320000015199184,0.976000046357513,0,0,0,0,0,1756383178.74481,0, 2025-08-28 09:12:58.744
62,-346.971088339109,-2766.20765247615,-6642.70932399761,-9312.55845411541,0.0160000007599592,0.0320000015199184,0.976000046357513,0,0,0,0,0,1756383178.76046,0, 2025-08-28 09:12:58.760
62,-322.280268831644,-2805.98148850491,-6573.43889701832,-9408.59534507757,0.0160000007599592,0.0320000015199184,0.976000046357513,0,0,0,0,0,1756383178.76046,0, 2025-08-28 09:12:58.760
63,-274.817198493984,-2772.80857589794,-6529.27815834153,-9412.31654553348,0.0160000007599592,0.0320000015199184,0.976000046357513,0,0,0,0,0,1756383178.76121,0, 2025-08-28 09:12:58.761
63,-325.298368095886,-2755.75089220004,-6586.17325636745,-9350.94104736066,0.0160000007599592,0.0320000015199184,0.976000046357513,0,0,0,0,0,1756383178.76121,0, 2025-08-28 09:12:58.761
64,-333.058660503942,-2811.79703293601,-6588.56305243913,-9433.64145508083,0.0160000007599592,0.0320000015199184,0.976000046357513,0,0,0,0,0,1756383178.7748,0, 2025-08-28 09:12:58.774
64,-269.270926859695,-2807.7803803836,-6573.76426831447,-9496.25860003894,0.0160000007599592,0.0320000015199184,0.976000046357513,0,0,0,0,0,1756383178.7748,0, 2025-08-28 09:12:58.774
65,-320.578614351805,-2772.52060360136,-6590.26470691897,-9406.26912730513,0.0160000007599592,0.0320000015199184,0.976000046357513,0,0,0,0,0,1756383178.79049,0, 2025-08-28 09:12:58.790
65,-332.568733609747,-2797.0356478109,-6602.53531867359,-9376.38358675921,0.0160000007599592,0.0320000015199184,0.976000046357513,0,0,0,0,0,1756383178.79049,0, 2025-08-28 09:12:58.790
66,-286.339830257464,-2822.9307151041,-6543.32896247506,-9475.35255928664,0.0160000007599592,0.0320000015199184,0.976000046357513,0,0,0,0,0,1756383178.79122,0, 2025-08-28 09:12:58.791
66,-283.220753694419,-2775.38536696741,-6539.25995132327,-9427.04801145895,0.0160000007599592,0.0320000015199184,0.976000046357513,0,0,0,0,0,1756383178.79122,0, 2025-08-28 09:12:58.791
67,-330.76984173106,-2778.48574403068,-6549.72793129925,-9389.89584529912,0.0160000007599592,0.0320000015199184,0.976000046357513,0,0,0,0,0,1756383178.80478,0, 2025-08-28 09:12:58.804
67,-306.262277321424,-2816.99175397446,-6522.29576512426,-9462.86129343463,0.0160000007599592,0.0320000015199184,0.976000046357513,0,0,0,0,0,1756383178.80478,0, 2025-08-28 09:12:58.804
68,-270.366717546713,-2805.82067280682,-6517.50495328102,-9495.10671085259,0.0160000007599592,0.0320000015199184,0.976000046357513,0,0,0,0,0,1756383178.82048,0, 2025-08-28 09:12:58.820
68,-322.11945313355,-2776.03984945966,-6535.11240227241,-9366.16244018031,0.0160000007599592,0.0320000015199184,0.976000046357513,0,0,0,0,0,1756383178.82048,0, 2025-08-28 09:12:58.820
69,-323.634112615604,-2832.7554322877,-6514.05676552188,-9439.6028556102,0.0160000007599592,0.0320000015199184,0.976000046357513,0,0,0,0,0,1756383178.82121,0, 2025-08-28 09:12:58.821
69,-263.769534024876,-2809.26138076605,-6438.62672331557,-9465.0753142084,0.0160000007599592,0.0320000015199184,0.976000046357513,0,0,0,0,0,1756383178.82121,0, 2025-08-28 09:12:58.821
70,-293.96174636716,-2784.282588962,-6473.21331810579,-9375.80016236613,0.0160000007599592,0.0320000015199184,0.976000046357513,0,0,0,0,0,1756383178.83482,0, 2025-08-28 09:12:58.834
70,-313.798175732139,-2835.59401635407,-6479.44399143197,-9386.22700344259,0.0160000007599592,0.0320000015199184,0.976000046357513,0,0,0,0,0,1756383178.83482,0, 2025-08-28 09:12:58.834
71,-270.703308542725,-2860.94305825373,-6418.52102115378,-9470.10921954876,0.0160000007599592,0.0480000022798777,0.976000046357513,0,0,0,0,0,1756383178.85048,0, 2025-08-28 09:12:58.850
71,-261.895844147075,-2786.93417803058,-6394.37622703984,-9393.50858865632,0.0160000007599592,0.0480000022798777,0.976000046357513,0,0,0,0,0,1756383178.85048,0, 2025-08-28 09:12:58.850
72,-307.780676703434,-2788.29550161445,-6403.56890113093,-9347.89302889677,0.0160000007599592,0.0480000022798777,0.976000046357513,0,0,0,0,0,1756383178.85121,0, 2025-08-28 09:12:58.851
72,-292.981892578769,-2839.86872200342,-6350.50346065965,-9417.49630697211,0.0160000007599592,0.0480000022798777,0.976000046357513,0,0,0,0,0,1756383178.85121,0, 2025-08-28 09:12:58.851
73,-251.267048473004,-2791.49311607657,-6353.03537292965,-9439.55049701082,0.0160000007599592,0.0480000022798777,0.976000046357513,0,0,0,0,0,1756383178.86479,0, 2025-08-28 09:12:58.864
73,-309.826401979197,-2782.80158857955,-6388.74393770657,-9352.78481803881,0.0160000007599592,0.0480000022798777,0.976000046357513,0,0,0,0,0,1756383178.86479,0, 2025-08-28 09:12:58.864
74,-309.198098786641,-2861.70973774465,-6427.89321044274,-9471.82583362842,0.0160000007599592,0.0480000022798777,0.976000046357513,0,0,0,0,0,1756383178.88045,0, 2025-08-28 09:12:58.880
74,-254.057013839949,-2834.30749076931,-6341.47160226665,-9502.1788616688,0.0160000007599592,0.0480000022798777,0.976000046357513,0,0,0,0,0,1756383178.88045,0, 2025-08-28 09:12:58.880
75,-296.99854513118,-2786.44799103634,-6350.36134446133,-9417.53370597167,0.0160000007599592,0.0480000022798777,0.976000046357513,0,0,0,0,0,1756383178.88118,0, 2025-08-28 09:12:58.881
75,-305.592835229356,-2810.99669434549,-6352.26495353878,-9430.58969671698,0.0160000007599592,0.0480000022798777,0.976000046357513,0,0,0,0,0,1756383178.88118,0, 2025-08-28 09:12:58.881
76,-266.899830287788,-2836.62622874184,-6282.75891286228,-9515.11143571558,0.0160000007599592,0.0480000022798777,0.976000046357513,0,0,0,0,0,1756383178.89478,0, 2025-08-28 09:12:58.894
76,-264.233281619381,-2784.87723305495,-6280.9675007835,-9467.91389827477,0.0160000007599592,0.0480000022798777,0.976000046357513,0,0,0,0,0,1756383178.89478,0, 2025-08-28 09:12:58.894
77,-306.613827917259,-2797.99680209951,-6295.14920141548,-9420.36107033817,0.0160000007599592,0.0480000022798777,0.976000046357513,0,0,0,0,0,1756383178.91053,0, 2025-08-28 09:12:58.910
77,-283.396528992336,-2835.4219809561,-6216.11389565188,-9489.24628762202,0.0160000007599592,0.0480000022798777,0.976000046357513,0,0,0,0,0,1756383178.91053,0, 2025-08-28 09:12:58.910
78,-251.233389373403,-2789.03974170564,-6177.22641591262,-9482.88845769735,0.0160000007599592,0.0480000022798777,0.976000046357513,0,0,0,0,0,1756383178.91127,0, 2025-08-28 09:12:58.911
78,-320.22706375597,-2773.01053049555,-6208.16660824604,-9417.80297876848,0.0160000007599592,0.0480000022798777,0.976000046357513,0,0,0,0,0,1756383178.91127,0, 2025-08-28 09:12:58.911
79,-307.97515150113,-2821.50955312094,-6172.14763177279,-9487.70170894032,0.0160000007599592,0.0480000022798777,0.976000046357513,0,0,0,0,0,1756383178.92481,0, 2025-08-28 09:12:58.924
79,-257.265848001931,-2804.93431651732,-6115.37969034538,-9519.9284268585,0.0160000007599592,0.0480000022798777,0.976000046357513,0,0,0,0,0,1756383178.92481,0, 2025-08-28 09:12:58.924
80,-306.419353119563,-2766.94441276742,-6142.59494232293,-9445.44457934098,0.0160000007599592,0.0480000022798777,0.976000046357513,0,0,0,0,0,1756383178.94052,0, 2025-08-28 09:12:58.940
80,-323.940784411971,-2796.29888751963,-6145.29141019098,-9445.16034694435,0.0160000007599592,0.0480000022798777,0.976000046357513,0,0,0,0,0,1756383178.94052,0, 2025-08-28 09:12:58.940
81,-285.266478970181,-2813.52860661549,-6109.5117873149,-9532.27757651219,0.0160000007599592,0.0480000022798777,0.976000046357513,0,0,0,0,0,1756383178.94126,0, 2025-08-28 09:12:58.941
81,-286.893335450906,-2764.28908379888,-6148.61244135164,-9475.73402908212,0.0160000007599592,0.0480000022798777,0.976000046357513,0,0,0,0,0,1756383178.94126,0, 2025-08-28 09:12:58.941
82,-329.056967551354,-2765.48959168466,-6218.73556552082,-9426.50946586532,0.0160000007599592,0.0480000022798777,0.976000046357513,0,0,0,0,0,1756383178.97115,0, 2025-08-28 09:12:58.971
82,-304.691519340035,-2799.84805257758,-6162.95121778175,-9507.32496400783,0.0160000007599592,0.0480000022798777,0.976000046357513,0,0,0,0,0,1756383178.97115,0, 2025-08-28 09:12:58.971
83,-265.224355107639,-2778.36232733214,-6124.54618513677,-9502.6426092633,0.0160000007599592,0.0480000022798777,0.976000046357513,0,0,0,0,0,1756383178.97189,0, 2025-08-28 09:12:58.971
83,-325.818214189727,-2777.77142313914,-6156.70932475571,-9476.82233996922,0.0160000007599592,0.0480000022798777,0.976000046357513,0,0,0,0,0,1756383178.97189,0, 2025-08-28 09:12:58.971
84,-308.251904097851,-2819.44886824535,-6132.93478073739,-9540.89056611014,0.0160000007599592,0.0480000022798777,0.976000046357513,0,0,0,0,0,1756383178.9727,0, 2025-08-28 09:12:58.972
84,-255.309880325105,-2790.30382789066,-6080.61732025724,-9547.36059303349,0.0160000007599592,0.0480000022798777,0.976000046357513,0,0,0,0,0,1756383178.9727,0, 2025-08-28 09:12:58.972
85,-308.614674393553,-2754.37460901635,-6139.43098696042,-9465.54654160282,0.0160000007599592,0.0480000022798777,0.976000046357513,0,0,0,0,0,1756383178.98482,0, 2025-08-28 09:12:58.984
85,-315.604547410738,-2777.47223114269,-6134.1577280229,-9454.79058933025,0.0160000007599592,0.0480000022798777,0.976000046357513,0,0,0,0,0,1756383178.98482,0, 2025-08-28 09:12:58.984
86,-280.056798331905,-2805.74961470766,-6098.94283004012,-9531.13316712575,0.0160000007599592,0.0480000022798777,0.976000046357513,0,0,0,0,0,1756383179.00049,0, 2025-08-28 09:12:59.000
86,-289.492565920111,-2766.74619806977,-6133.63788192905,-9501.30372507917,0.0160000007599592,0.0480000022798777,0.976000046357513,0,0,0,0,0,1756383179.00049,0, 2025-08-28 09:12:59.000
87,-319.886732860003,-2757.94247357408,-6141.7198057333,-9438.08445622819,0.0160000007599592,0.0480000022798777,0.976000046357513,0,0,0,0,0,1756383179.00123,0, 2025-08-28 09:12:59.001
87,-306.277236921247,-2817.76965316525,-6112.34663148131,-9522.62489472656,0.0160000007599592,0.0480000022798777,0.976000046357513,0,0,0,0,0,1756383179.00123,0, 2025-08-28 09:12:59.001
88,-275.082731390838,-2786.96409723023,-6078.35094088409,-9513.80247073108,0.0160000007599592,0.0480000022798777,0.976000046357513,0,0,0,0,0,1756383179.01482,0, 2025-08-28 09:12:59.014
88,-332.714589708019,-2775.35544776777,-6133.07315703575,-9457.86852699379,0.0160000007599592,0.0480000022798777,0.976000046357513,0,0,0,0,0,1756383179.01482,0, 2025-08-28 09:12:59.014
89,-320.215844056103,-2822.06679821434,-6088.62070616242,-9504.44524104195,0.0160000007599592,0.0480000022798777,0.976000046357513,0,0,0,0,0,1756383179.03064,0, 2025-08-28 09:12:59.030
89,-275.438021886628,-2817.5714384676,-6031.53861313872,-9547.5288885315,0.0160000007599592,0.0480000022798777,0.976000046357513,0,0,0,0,0,1756383179.03064,0, 2025-08-28 09:12:59.030
90,-318.461830976885,-2788.77420880878,-6038.8239382524,-9470.41963124508,0.0160000007599592,0.0480000022798777,0.976000046357513,0,0,0,0,0,1756383179.03119,0, 2025-08-28 09:12:59.031
90,-325.302107995842,-2815.97076128656,-6051.61439610086,-9459.17001217837,0.0160000007599592,0.0480000022798777,0.976000046357513,0,0,0,0,0,1756383179.03119,0, 2025-08-28 09:12:59.031
91,-288.318237334024,-2845.35141533846,-5985.43686638493,-9558.33719940344,0.0160000007599592,0.0480000022798777,0.976000046357513,0,0,0,0,0,1756383179.04482,0, 2025-08-28 09:12:59.044
91,-292.701400082093,-2790.62545928685,-5974.44530041516,-9487.98594133696,0.0160000007599592,0.0480000022798777,0.976000046357513,0,0,0,0,0,1756383179.04482,0, 2025-08-28 09:12:59.044
92,-320.578614351805,-2803.73006873159,-6018.03009449877,-9434.34081637254,0.0160000007599592,0.0480000022798777,0.976000046357513,0,0,0,0,0,1756383179.0605,0, 2025-08-28 09:12:59.060
92,-303.423693255056,-2860.28109596157,-6003.40708567202,-9533.728657695,0.0160000007599592,0.0480000022798777,0.976000046357513,0,0,0,0,0,1756383179.0605,0, 2025-08-28 09:12:59.060
93,-272.143170025665,-2813.49868741585,-5971.09435005486,-9513.04701094003,0.0160000007599592,0.0480000022798777,0.976000046357513,0,0,0,0,0,1756383179.06123,0, 2025-08-28 09:12:59.061
93,-326.304401183967,-2784.12551316386,-6004.75344965607,-9409.76219386375,0.0160000007599592,0.0480000022798777,0.976000046357513,0,0,0,0,0,1756383179.06123,0, 2025-08-28 09:12:59.061
94,-320.541215352248,-2827.76640574681,-5993.08122189436,-9442.7593311728,0.0160000007599592,0.0480000022798777,0.976000046357513,0,0,0,0,0,1756383179.07486,0, 2025-08-28 09:12:59.074
94,-267.782446677331,-2829.31846422842,-5962.72445395403,-9483.47562199039,0.0160000007599592,0.0480000022798777,0.976000046357513,0,0,0,0,0,1756383179.07486,0, 2025-08-28 09:12:59.074
95,-315.570888311136,-2814.09707140876,-5973.48040622659,-9409.36576446844,0.0160000007599592,0.0480000022798777,0.976000046357513,0,0,0,0,0,1756383179.09049,0, 2025-08-28 09:12:59.090
95,-332.819306906778,-2832.75917218765,-5985.96419227868,-9410.3568379567,0.0160000007599592,0.0480000022798777,0.976000046357513,0,0,0,0,0,1756383179.09049,0, 2025-08-28 09:12:59.090
96,-287.196267347317,-2869.98239644663,-5973.615042625,-9508.41701479489,0.0160000007599592,0.0480000022798777,0.976000046357513,0,0,0,0,0,1756383179.09122,0, 2025-08-28 09:12:59.091
96,-290.135828712489,-2807.73176168418,-6012.04625456967,-9436.67825384485,0.0160000007599592,0.0480000022798777,0.976000046357513,0,0,0,0,0,1756383179.09122,0, 2025-08-28 09:12:59.091
97,-328.406224959064,-2828.77243883489,-6066.94798591919,-9415.65253629396,0.0160000007599592,0.0480000022798777,0.976000046357513,0,0,0,0,0,1756383179.10483,0, 2025-08-28 09:12:59.104
97,-311.606594358105,-2884.2912536771,-6022.88448464125,-9506.1543753217,0.0160000007599592,0.0480000022798777,0.976000046357513,0,0,0,0,0,1756383179.10483,0, 2025-08-28 09:12:59.104
98,-279.701507836115,-2843.78813715698,-6002.62170668133,-9466.0626477967,0.0160000007599592,0.0480000022798777,0.976000046357513,0,0,0,0,0,1756383179.12047,0, 2025-08-28 09:12:59.120
98,-321.82400103705,-2838.29422412207,-6058.79874391574,-9388.15305191977,0.0160000007599592,0.0480000022798777,0.976000046357513,0,0,0,0,0,1756383179.12047,0, 2025-08-28 09:12:59.120
99,-316.483423900325,-2887.90025713434,-6016.14892482106,-9448.04006991023,0.0160000007599592,0.0480000022798777,0.976000046357513,0,0,0,0,0,1756383179.12119,0, 2025-08-28 09:12:59.121
99,-269.136290461291,-2874.43287739391,-5994.63328037597,-9496.02298634173,0.0160000007599592,0.0480000022798777,0.976000046357513,0,0,0,0,0,1756383179.12119,0, 2025-08-28 09:12:59.121
100,-314.706971421372,-2846.74639802193,-6008.2876551142,-9398.22460250044,0.0160000007599592,0.0480000022798777,0.976000046357513,0,0,0,0,0,1756383179.1355,0, 2025-08-28 09:12:59.135
100,-321.85018033674,-2871.94210402342,-6030.88039074652,-9383.6689118729,0.0160000007599592,0.0480000022798777,0.976000046357513,0,0,0,0,0,1756383179.1355,0, 2025-08-28 09:12:59.135
0,-281.911788709927,-2911.60748295346,-6502.45185595937,-9466.35249004327,0.0160000007599592,0.0480000022798777,0.976000046357513,0,0,0,0,0,1756383179.13621,0, 2025-08-28 09:12:59.136
1,-287.005532449577,-2860.10532066366,-6526.48071317468,-9379.58681107126,0.0160000007599592,0.0480000022798777,0.976000046357513,0,0,0,0,0,1756383179.14988,0, 2025-08-28 09:12:59.149
1,-318.820861372631,-2849.00903749512,-6556.94593821373,-9309.40010860283,0.0160000007599592,0.0480000022798777,0.976000046357513,0,0,0,0,0,1756383179.14988,0, 2025-08-28 09:12:59.149
2,-297.264078028034,-2903.58165764855,-6541.83300249279,-9414.91390605271,0.0160000007599592,0.0480000022798777,0.976000046357513,0,0,0,0,0,1756383179.16548,0, 2025-08-28 09:12:59.165
2,-297.507171525154,-2977.09687107755,-6695.28109767474,-9566.14424056094,0.0160000007599592,0.0480000022798777,0.976000046357513,0,0,0,0,0,1756383179.16548,0, 2025-08-28 09:12:59.165
3,-340.198129519355,-2936.54887575796,-6694.48823888414,-9461.2437867038,0.0160000007599592,0.0480000022798777,0.976000046357513,0,0,0,0,0,1756383179.1662,0, 2025-08-28 09:12:59.166
3,-326.461476982106,-2967.52646709094,-6705.7677771505,-9530.25242068619,0.0160000007599592,0.0480000022798777,0.976000046357513,0,0,0,0,0,1756383179.1662,0, 2025-08-28 09:12:59.166
4,-285.221600170713,-2942.3943393887,-6638.57299464662,-9557.32929636538,0.0160000007599592,0.0480000022798777,0.976000046357513,0,0,0,0,0,1756383179.17982,0, 2025-08-28 09:12:59.179
4,-328.24540926097,-2913.36149603268,-6692.32283680979,-9470.65337499231,0.0160000007599592,0.0480000022798777,0.976000046357513,0,0,0,0,0,1756383179.17982,0, 2025-08-28 09:12:59.179
5,-325.990249587689,-2921.40602083737,-6677.69982798304,-9441.93842313252,0.0160000007599592,0.0480000022798777,0.976000046357513,0,0,0,0,0,1756383179.19544,0, 2025-08-28 09:12:59.195
5,-280.647702524904,-2937.47637094697,-6625.34122860339,-9513.72580278199,0.0160000007599592,0.0480000022798777,0.976000046357513,0,0,0,0,0,1756383179.19544,0, 2025-08-28 09:12:59.195
6,-306.019183824304,-2924.75323129771,-6724.48223652877,-9534.37753033731,0.0160000007599592,0.0480000022798777,0.976000046357513,0,0,0,0,0,1756383179.19623,0, 2025-08-28 09:12:59.196
6,-342.703862489667,-2902.17171536526,-6728.09497988597,-9462.05908489414,0.0160000007599592,0.0480000022798777,0.976000046357513,0,0,0,0,0,1756383179.19623,0, 2025-08-28 09:12:59.196
7,-315.851380807813,-2968.21086878283,-6724.86370632425,-9583.62079305388,0.0160000007599592,0.0480000022798777,0.976000046357513,0,0,0,0,0,1756383179.20977,0, 2025-08-28 09:12:59.209
7,-288.714666729327,-2908.84743678616,-6676.23004730046,-9519.8106200099,0.0160000007599592,0.0480000022798777,0.976000046357513,0,0,0,0,0,1756383179.20977,0, 2025-08-28 09:12:59.209
8,-325.792034890037,-2871.96828332311,-6732.38464513514,-9427.44257090427,0.0160000007599592,0.0480000022798777,0.976000046357513,0,0,0,0,0,1756383179.22546,0, 2025-08-28 09:12:59.225
8,-311.060568964574,-2928.45573225385,-6701.65014729928,-9496.12209369056,0.0160000007599592,0.0480000022798777,0.976000046357513,0,0,0,0,0,1756383179.22546,0, 2025-08-28 09:12:59.225
9,-273.702708307188,-2972.03304653754,-6697.37544164993,-9583.87136635091,0.0160000007599592,0.0480000022798777,0.976000046357513,0,0,0,0,0,1756383179.22621,0, 2025-08-28 09:12:59.226
9,-320.346740554553,-2874.01400859887,-6718.61433349829,-9485.83362891246,0.0160000007599592,0.0480000022798777,0.976000046357513,0,0,0,0,0,1756383179.22621,0, 2025-08-28 09:12:59.226
10,-327.931257664692,-2942.26344289025,-6753.84793098085,-9516.74016214628,0.0160000007599592,0.0480000022798777,0.976000046357513,0,0,0,0,0,1756383179.23984,0, 2025-08-28 09:12:59.239
10,-285.158021871466,-2954.2273828485,-6663.75748094823,-9586.54913471919,0.0160000007599592,0.0480000022798777,0.976000046357513,0,0,0,0,0,1756383179.23984,0, 2025-08-28 09:12:59.239
11,-291.224139599595,-2911.90667494992,-6691.61225581821,-9531.53146647103,0.0160000007599592,0.0480000022798777,0.976000046357513,0,0,0,0,0,1756383179.25542,0, 2025-08-28 09:12:59.255
11,-337.875651646871,-2943.07126128068,-6759.84299060982,-9535.63039682247,0.0160000007599592,0.0480000022798777,0.976000046357513,0,0,0,0,0,1756383179.25542,0, 2025-08-28 09:12:59.255
12,-318.13645968074,-3007.64063401567,-6757.27741924021,-9691.48698757589,0.0160000007599592,0.0480000022798777,0.976000046357513,0,0,0,0,0,1756383179.25616,0, 2025-08-28 09:12:59.256
12,-293.677513970528,-3002.92462017154,-6833.40308283828,-9752.76150844991,0.0160000007599592,0.0480000022798777,0.976000046357513,0,0,0,0,0,1756383179.25616,0, 2025-08-28 09:12:59.256
13,-341.649210702162,-2949.73202310177,-6817.69550302438,-9636.46557942778,0.0160000007599592,0.0480000022798777,0.976000046357513,0,0,0,0,0,1756383179.26979,0, 2025-08-28 09:12:59.269
13,-343.56029957952,-3032.87747891666,-6828.86658419203,-9751.05237417016,0.0160000007599592,0.0480000022798777,0.976000046357513,0,0,0,0,0,1756383179.26979,0, 2025-08-28 09:12:59.269
14,-291.751465493348,-2996.79492414417,-6767.92491441406,-9795.2766911462,0.0160000007599592,0.0480000022798777,0.976000046357513,0,0,0,0,0,1756383179.28543,0, 2025-08-28 09:12:59.285
14,-339.16965703154,-2986.43914116686,-6769.71632649284,-9718.58256275486,0.0160000007599592,0.0480000022798777,0.976000046357513,0,0,0,0,0,1756383179.28543,0, 2025-08-28 09:12:59.285
15,-346.944909039419,-2997.62518193433,-6783.73347152676,-9723.63890749496,0.0160000007599592,0.0480000022798777,0.976000046357513,0,0,0,0,0,1756383179.28616,0, 2025-08-28 09:12:59.286
15,-296.534797536675,-2996.65280794585,-6724.05214803386,-9762.78444033116,0.0160000007599592,0.0480000022798777,0.976000046357513,0,0,0,0,0,1756383179.28616,0, 2025-08-28 09:12:59.286
16,-303.988418148365,-2941.85205389513,-6763.25003946945,-9680.9105505012,0.0160000007599592,0.0480000022798777,0.976000046357513,0,0,0,0,0,1756383179.29979,0, 2025-08-28 09:12:59.299
16,-339.278114130255,-2963.18818314234,-6787.35369468387,-9613.96260139439,0.0160000007599592,0.0480000022798777,0.976000046357513,0,0,0,0,0,1756383179.29979,0, 2025-08-28 09:12:59.299
17,-317.179045292083,-3040.2600414292,-6785.28179010842,-9770.89628333505,0.0160000007599592,0.0480000022798777,0.976000046357513,0,0,0,0,0,1756383179.31546,0, 2025-08-28 09:12:59.315
17,-302.155867170077,-3033.39358511055,-6755.2616131641,-9778.41722214595,0.0160000007599592,0.0480000022798777,0.976000046357513,0,0,0,0,0,1756383179.31546,0, 2025-08-28 09:12:59.315
18,-341.664170301985,-2982.16069561755,-6763.63150926493,-9672.28260130342,0.0160000007599592,0.0480000022798777,0.976000046357513,0,0,0,0,0,1756383179.31618,0, 2025-08-28 09:12:59.316
18,-336.798560459632,-3017.09510110365,-6745.91186327487,-9736.04041574802,0.0160000007599592,0.0480000022798777,0.976000046357513,0,0,0,0,0,1756383179.31618,0, 2025-08-28 09:12:59.316
19,-292.73879908165,-2984.91326198494,-6686.72046667617,-9794.16594085935,0.0160000007599592,0.0480000022798777,0.976000046357513,0,0,0,0,0,1756383179.32979,0, 2025-08-28 09:12:59.329
19,-327.381492371205,-2937.93263874156,-6686.65688837692,-9643.91172023956,0.0160000007599592,0.0480000022798777,0.976000046357513,0,0,0,0,0,1756383179.32979,0, 2025-08-28 09:12:59.329
20,-332.359299212228,-2959.65397768421,-6694.58921618294,-9652.1544597419,0.0160000007599592,0.0480000022798777,0.976000046357513,0,0,0,0,0,1756383179.34551,0, 2025-08-28 09:12:59.345
20,-303.674266552087,-3039.55694023753,-6685.95752708521,-9806.44403241389,0.0160000007599592,0.0480000022798777,0.976000046357513,0,0,0,0,0,1756383179.34551,0, 2025-08-28 09:12:59.345
21,-307.481484706979,-2921.53691733582,-6655.23798884917,-9664.9075185908,0.0160000007599592,0.0480000022798777,0.976000046357513,0,0,0,0,0,1756383179.34628,0, 2025-08-28 09:12:59.346
21,-333.571026797872,-2934.21891808556,-6717.06227501668,-9612.9154294068,0.0160000007599592,0.0480000022798777,0.976000046357513,0,0,0,0,0,1756383179.34628,0, 2025-08-28 09:12:59.346
22,-322.111973333638,-3037.23446236504,-6704.34661516734,-9729.3833938269,0.0160000007599592,0.0480000022798777,0.976000046357513,0,0,0,0,0,1756383179.35978,0, 2025-08-28 09:12:59.359
22,-299.294843703974,-2995.82629005564,-6703.38546087872,-9732.16587939393,0.0160000007599592,0.0480000022798777,0.976000046357513,0,0,0,0,0,1756383179.35978,0, 2025-08-28 09:12:59.359
23,-344.730888265651,-2993.3654358848,-6795.46553768776,-9694.11987714469,0.0160000007599592,0.0480000022798777,0.976000046357513,0,0,0,0,0,1756383179.37551,0, 2025-08-28 09:12:59.375
23,-328.208010261413,-3017.87674019439,-6753.36548388656,-9711.08032344375,0.0160000007599592,0.0480000022798777,0.976000046357513,0,0,0,0,0,1756383179.37551,0, 2025-08-28 09:12:59.375
24,-280.67762172455,-2971.01205384964,-6692.73422580492,-9715.68040038925,0.0160000007599592,0.0480000022798777,0.976000046357513,0,0,0,0,0,1756383179.37624,0, 2025-08-28 09:12:59.376
24,-330.347233036067,-2980.30944513949,-6724.94972402323,-9662.23723002244,0.0160000007599592,0.0480000022798777,0.976000046357513,0,0,0,0,0,1756383179.37624,0, 2025-08-28 09:12:59.376
25,-342.85719838785,-3043.04252699623,-6776.37708831392,-9709.58810336143,0.0160000007599592,0.0480000022798777,0.976000046357513,0,0,0,0,0,1756383179.38979,0, 2025-08-28 09:12:59.389
25,-292.697660182137,-3004.83196914894,-6685.01133239642,-9731.05138920713,0.0160000007599592,0.0480000022798777,0.976000046357513,0,0,0,0,0,1756383179.38979,0, 2025-08-28 09:12:59.389
26,-314.602254222613,-2977.54565907223,-6727.04780789837,-9704.65891521983,0.0160000007599592,0.0480000022798777,0.976000046357513,0,0,0,0,0,1756383179.40551,0, 2025-08-28 09:12:59.405
26,-350.415536198299,-2977.62793687126,-6732.60155933257,-9614.57220508717,0.0160000007599592,0.0480000022798777,0.976000046357513,0,0,0,0,0,1756383179.40551,0, 2025-08-28 09:12:59.405
27,-318.989156870637,-2994.42756747222,-6648.93999732379,-9667.58902685903,0.0160000007599592,0.0480000022798777,0.976000046357513,0,0,0,0,0,1756383179.40624,0, 2025-08-28 09:12:59.406
27,-301.471465478186,-2992.26216539787,-6619.42844677344,-9653.69529852364,0.0160000007599592,0.0480000022798777,0.976000046357513,0,0,0,0,0,1756383179.40624,0, 2025-08-28 09:12:59.406
28,-336.110418867785,-2983.02087260736,-6611.59709626623,-9563.99753798638,0.0160000007599592,0.0480000022798777,0.976000046357513,0,0,0,0,0,1756383179.41976,0, 2025-08-28 09:12:59.419
28,-328.529641657602,-3013.16446625022,-6547.35683472734,-9600.8879111493,0.0160000007599592,0.0480000022798777,0.976000046357513,0,0,0,0,0,1756383179.41976,0, 2025-08-28 09:12:59.419
29,-282.760745999869,-2984.19520119345,-6457.52443779167,-9588.5312816957,0.0160000007599592,0.0480000022798777,0.976000046357513,0,0,0,0,0,1756383179.43548,0, 2025-08-28 09:12:59.435
29,-320.22706375597,-2878.81978004193,-6405.34535360988,-9380.30861176271,0.0160000007599592,0.0480000022798777,0.976000046357513,0,0,0,0,0,1756383179.43548,0, 2025-08-28 09:12:59.435
30,-333.481269198935,-2983.71649399912,-6433.948108471,-9497.22910407744,0.0160000007599592,0.0480000022798777,0.976000046357513,0,0,0,0,0,1756383179.43621,0, 2025-08-28 09:12:59.436
30,-274.465647898149,-2964.73276182404,-6336.9351036204,-9488.62733417936,0.0160000007599592,0.0480000022798777,0.976000046357513,0,0,0,0,0,1756383179.43621,0, 2025-08-28 09:12:59.436
31,-302.013750971761,-2938.54224243434,-6432.15295649227,-9487.21365199611,0.0160000007599592,0.0480000022798777,0.976000046357513,0,0,0,0,0,1756383179.44976,0, 2025-08-28 09:12:59.449
31,-334.868772082496,-2994.5472442708,-6464.55170980841,-9451.80801911559,0.0160000007599592,0.0480000022798777,0.976000046357513,0,0,0,0,0,1756383179.44976,0, 2025-08-28 09:12:59.449
32,-302.06610957114,-3011.17109957384,-6449.66316808481,-9559.44233984035,0.0160000007599592,0.0480000022798777,0.976000046357513,0,0,0,0,0,1756383179.46553,0, 2025-08-28 09:12:59.465
32,-276.339337775949,-2891.54291969119,-6353.86937061977,-9446.00369438436,0.0160000007599592,0.0480000022798777,0.976000046357513,0,0,0,0,0,1756383179.46553,0, 2025-08-28 09:12:59.465
33,-333.664524296764,-2965.09553211974,-6450.11569597945,-9538.89532948378,0.0160000007599592,0.0480000022798777,0.976000046357513,0,0,0,0,0,1756383179.46626,0, 2025-08-28 09:12:59.466
33,-312.369533949066,-2947.69003772596,-6360.32817784324,-9514.86273236852,0.0160000007599592,0.0480000022798777,0.976000046357513,0,0,0,0,0,1756383179.46626,0, 2025-08-28 09:12:59.466
34,-259.554666774813,-2928.74744445039,-6386.78797002975,-9575.13869995438,0.0160000007599592,0.0480000022798777,0.976000046357513,0,0,0,0,0,1756383179.47978,0, 2025-08-28 09:12:59.479
34,-315.432512012776,-2913.1408419353,-6456.94475329854,-9562.57263610326,0.0160000007599592,0.0480000022798777,0.976000046357513,0,0,0,0,0,1756383179.47978,0, 2025-08-28 09:12:59.479
35,-327.774181866553,-2956.34790612338,-6507.1678698035,-9539.43013517745,0.0160000007599592,0.0480000022798777,0.976000046357513,0,0,0,0,0,1756383179.49551,0, 2025-08-28 09:12:59.495
35,-283.751819488127,-2931.00260412367,-6509.05651928112,-9702.28033884801,0.0160000007599592,0.0480000022798777,0.976000046357513,0,0,0,0,0,1756383179.49551,0, 2025-08-28 09:12:59.495
36,-299.171427005436,-2950.9362708875,-6546.38446073886,-9632.65462137293,0.0160000007599592,0.0480000022798777,0.976000046357513,0,0,0,0,0,1756383179.49625,0, 2025-08-28 09:12:59.496
36,-328.065894063096,-2870.10581314517,-6540.62875470705,-9543.18873463292,0.0160000007599592,0.0480000022798777,0.976000046357513,0,0,0,0,0,1756383179.49625,0, 2025-08-28 09:12:59.496
37,-308.569795594085,-2983.79503189819,-6541.76194439363,-9751.10099286959,0.0160000007599592,0.0480000022798777,0.976000046357513,0,0,0,0,0,1756383179.50978,0, 2025-08-28 09:12:59.509
37,-274.495567097794,-2904.1089835423,-6490.11392600555,-9641.29753017053,0.0160000007599592,0.0480000022798777,0.976000046357513,0,0,0,0,0,1756383179.50978,0, 2025-08-28 09:12:59.509
38,-332.703370008152,-2929.85819473723,-6558.80840839166,-9579.46202430315,0.0160000007599592,0.0480000022798777,0.976000046357513,0,0,0,0,0,1756383179.52556,0, 2025-08-28 09:12:59.525
38,-320.511296152603,-2961.82685955847,-6563.99938953016,-9665.02719538938,0.0160000007599592,0.0480000022798777,0.976000046357513,0,0,0,0,0,1756383179.52556,0, 2025-08-28 09:12:59.525
39,-280.16525543062,-2942.67483188538,-6524.6556419963,-9691.11673748028,0.0160000007599592,0.0480000022798777,0.976000046357513,0,0,0,0,0,1756383179.52624,0, 2025-08-28 09:12:59.526
39,-328.323947160039,-2950.5136621925,-6588.55557263922,-9696.88740311191,0.0160000007599592,0.0480000022798777,0.976000046357513,0,0,0,0,0,1756383179.52624,0, 2025-08-28 09:12:59.526
40,-334.405024487991,-2952.34621317079,-6558.9991432894,-9668.80075444467,0.0160000007599592,0.0480000022798777,0.976000046357513,0,0,0,0,0,1756383179.53976,0, 2025-08-28 09:12:59.539
40,-292.402208085638,-2954.93048404017,-6492.47006297763,-9739.07347461209,0.0160000007599592,0.0480000022798777,0.976000046357513,0,0,0,0,0,1756383179.53976,0, 2025-08-28 09:12:59.539
41,-300.697306187358,-2897.47066112095,-6506.69664240908,-9635.86719543487,0.0160000007599592,0.0480000022798777,0.976000046357513,0,0,0,0,0,1756383179.55551,0, 2025-08-28 09:12:59.555
41,-330.481869434472,-2928.70630555088,-6573.71190971509,-9627.2803851366,0.0160000007599592,0.0480000022798777,0.976000046357513,0,0,0,0,0,1756383179.55551,0, 2025-08-28 09:12:59.555
42,-300.532750589307,-2981.31173832761,-6519.44970125798,-9709.48712606262,0.0160000007599592,0.0480000022798777,0.976000046357513,0,0,0,0,0,1756383179.55626,0, 2025-08-28 09:12:59.556
42,-279.215320841875,-2909.56549757766,-6480.43506492022,-9675.61485216394,0.0160000007599592,0.0480000022798777,0.976000046357513,0,0,0,0,0,1756383179.55626,0, 2025-08-28 09:12:59.556
43,-340.557159915101,-2926.98969147122,-6547.03894323111,-9623.21511388477,0.0160000007599592,0.0480000022798777,0.976000046357513,0,0,0,0,0,1756383179.5698,0, 2025-08-28 09:12:59.569
43,-329.976982940454,-2956.99864871567,-6513.9707478229,-9716.66025417764,0.0160000007599592,0.0480000022798777,0.976000046357513,0,0,0,0,0,1756383179.5698,0, 2025-08-28 09:12:59.569
44,-285.932181162294,-2940.20649791462,-6447.09011691529,-9733.7553368751,0.0160000007599592,0.0480000022798777,0.976000046357513,0,0,0,0,0,1756383179.5855,0, 2025-08-28 09:12:59.585
44,-334.524701286573,-2882.04357380373,-6495.66019763984,-9641.85477526393,0.0160000007599592,0.0480000022798777,0.976000046357513,0,0,0,0,0,1756383179.5855,0, 2025-08-28 09:12:59.585
45,-340.530980615411,-2926.42122667795,-6507.24266780261,-9667.04674136546,0.0160000007599592,0.0480000022798777,0.976000046357513,0,0,0,0,0,1756383179.58621,0, 2025-08-28 09:12:59.586
45,-301.202192681376,-2930.21722513298,-6441.31197148375,-9720.86016182788,0.0160000007599592,0.0480000022798777,0.976000046357513,0,0,0,0,0,1756383179.58621,0, 2025-08-28 09:12:59.586
46,-309.714204980526,-2917.5464440831,-6476.740043764,-9686.66251663305,0.0160000007599592,0.0480000022798777,0.976000046357513,0,0,0,0,0,1756383179.59983,0, 2025-08-28 09:12:59.599
46,-343.104031784926,-2925.63958758721,-6471.65751972422,-9629.5430246098,0.0160000007599592,0.0480000022798777,0.976000046357513,0,0,0,0,0,1756383179.59983,0, 2025-08-28 09:12:59.599
47,-319.759576261509,-2997.00435854169,-6442.64711576793,-9729.66014642362,0.0160000007599592,0.0480000022798777,0.976000046357513,0,0,0,0,0,1756383179.6155,0, 2025-08-28 09:12:59.615
47,-297.095782530028,-2928.53801005287,-6443.24549976084,-9655.70362479985,0.0160000007599592,0.0480000022798777,0.976000046357513,0,0,0,0,0,1756383179.6155,0, 2025-08-28 09:12:59.615
48,-341.847425399814,-2930.18356603337,-6503.11381825153,-9607.43273607176,0.0160000007599592,0.0480000022798777,0.976000046357513,0,0,0,0,0,1756383179.61624,0, 2025-08-28 09:12:59.616
48,-328.802654354367,-2975.00252710236,-6483.17641158774,-9649.951658668,0.0160000007599592,0.0480000022798777,0.976000046357513,0,0,0,0,0,1756383179.61624,0, 2025-08-28 09:12:59.616
49,-287.67123464169,-2943.44525127625,-6410.10624625348,-9657.44267827924,0.0160000007599592,0.0480000022798777,0.976000046357513,0,0,0,0,0,1756383179.62983,0, 2025-08-28 09:12:59.629
49,-326.540014881175,-2918.6010958706,-6446.85450321808,-9582.85037366301,0.0160000007599592,0.0480000022798777,0.976000046357513,0,0,0,0,0,1756383179.62983,0, 2025-08-28 09:12:59.629
50,-336.611565461848,-2998.24226542702,-6473.50877020229,-9612.66859600972,0.0160000007599592,0.0480000022798777,0.976000046357513,0,0,0,0,0,1756383179.6455,0, 2025-08-28 09:12:59.645
50,-287.009272349533,-2952.51076876884,-6438.28265251964,-9656.46282449085,0.0160000007599592,0.0480000022798777,0.976000046357513,0,0,0,0,0,1756383179.6455,0, 2025-08-28 09:12:59.645
51,-313.192311939318,-2913.0473444364,-6464.41707341,-9565.39252066985,0.0160000007599592,0.0480000022798777,0.976000046357513,0,0,0,0,0,1756383179.64621,0, 2025-08-28 09:12:59.646
51,-338.100045644213,-2931.88148061326,-6538.40725413337,-9541.00089315884,0.0160000007599592,0.0480000022798777,0.976000046357513,0,0,0,0,0,1756383179.64621,0, 2025-08-28 09:12:59.646
52,-313.697198433336,-2944.12591306819,-6494.97205604799,-9598.06428668276,0.0160000007599592,0.0480000022798777,0.976000046357513,0,0,0,0,0,1756383179.65983,0, 2025-08-28 09:12:59.659
52,-293.625155371148,-2926.54838327644,-6486.62459934689,-9558.61956185009,0.0160000007599592,0.0480000022798777,0.976000046357513,0,0,0,0,0,1756383179.65983,0, 2025-08-28 09:12:59.659
53,-338.769487736281,-2927.74515126226,-6549.75411059894,-9509.63435223047,0.0160000007599592,0.0480000022798777,0.976000046357513,0,0,0,0,0,1756383179.67547,0, 2025-08-28 09:12:59.675
53,-325.111373098101,-2949.43283110531,-6517.77796597779,-9565.99464456271,0.0160000007599592,0.0480000022798777,0.976000046357513,0,0,0,0,0,1756383179.67547,0, 2025-08-28 09:12:59.675
54,-288.916621326935,-2989.128129235,-6498.1360114105,-9630.58645669743,0.0160000007599592,0.0480000022798777,0.976000046357513,0,0,0,0,0,1756383179.6762,0, 2025-08-28 09:12:59.676
54,-337.015474657062,-2957.16694421368,-6571.89805823658,-9577.21808432974,0.0160000007599592,0.0480000022798777,0.976000046357513,0,0,0,0,0,1756383179.6762,0, 2025-08-28 09:12:59.676
55,-348.182815924752,-3010.79336967831,-6572.8666923251,-9598.81226667389,0.0160000007599592,0.0480000022798777,0.976000046357513,0,0,0,0,0,1756383179.68985,0, 2025-08-28 09:12:59.689
55,-293.322223474737,-2983.54819850111,-6483.25494948681,-9663.57985410653,0.0160000007599592,0.0480000022798777,0.976000046357513,0,0,0,0,0,1756383179.68985,0, 2025-08-28 09:12:59.689
56,-313.368087237235,-2952.03580147447,-6480.01245622523,-9582.45394426771,0.0160000007599592,0.0480000022798777,0.976000046357513,0,0,0,0,0,1756383179.70549,0, 2025-08-28 09:12:59.705
56,-353.115743966307,-2985.16757518193,-6544.96703865565,-9576.14473304246,0.0160000007599592,0.0480000022798777,0.976000046357513,0,0,0,0,0,1756383179.70549,0, 2025-08-28 09:12:59.705
57,-325.803254589904,-3036.46030307421,-6507.98690789379,-9664.01368250139,0.0160000007599592,0.0480000022798777,0.976000046357513,0,0,0,0,0,1756383179.70621,0, 2025-08-28 09:12:59.706
57,-296.007471642923,-2997.85705573158,-6481.67671170551,-9611.27735322621,0.0160000007599592,0.0480000022798777,0.976000046357513,0,0,0,0,0,1756383179.70621,0, 2025-08-28 09:12:59.706
58,-343.511680880096,-2985.42936817883,-6555.12086703535,-9535.31250532623,0.0160000007599592,0.0480000022798777,0.976000046357513,0,0,0,0,0,1756383179.71981,0, 2025-08-28 09:12:59.719
58,-330.609026032966,-3012.31176906032,-6539.60028221924,-9589.33162028622,0.0160000007599592,0.0480000022798777,0.976000046357513,0,0,0,0,0,1756383179.71981,0, 2025-08-28 09:12:59.719
59,-291.695366994012,-3008.56438930472,-6513.63415682688,-9636.2187460307,0.0160000007599592,0.0480000022798777,0.976000046357513,0,0,0,0,0,1756383179.73547,0, 2025-08-28 09:12:59.735
59,-341.454735904466,-2971.4458822445,-6547.22967812885,-9531.36317097303,0.0160000007599592,0.0480000022798777,0.976000046357513,0,0,0,0,0,1756383179.73547,0, 2025-08-28 09:12:59.735
60,-341.974581998307,-2965.31992611708,-6527.25113256555,-9534.56826523505,0.0160000007599592,0.0480000022798777,0.976000046357513,0,0,0,0,0,1756383179.7362,0, 2025-08-28 09:12:59.736
60,-305.162746734451,-2989.54699803004,-6468.60202146042,-9594.59365952388,0.0160000007599592,0.0480000022798777,0.976000046357513,0,0,0,0,0,1756383179.7362,0, 2025-08-28 09:12:59.736
61,-320.7394300499,-2938.67687883275,-6502.98292175308,-9525.9552756371,0.0160000007599592,0.0480000022798777,0.976000046357513,0,0,0,0,0,1756383179.74981,0, 2025-08-28 09:12:59.749
61,-354.693981747609,-2961.42669026321,-6545.40460695047,-9471.98103947658,0.0160000007599592,0.0480000022798777,0.976000046357513,0,0,0,0,0,1756383179.74981,0, 2025-08-28 09:12:59.749
62,-318.686224974226,-2972.51549363183,-6490.87312569656,-9538.0164529942,0.0160000007599592,0.0480000022798777,0.976000046357513,0,0,0,0,0,1756383179.76544,0, 2025-08-28 09:12:59.765
62,-292.256351987366,-2924.12866800511,-6480.03863552492,-9530.521693483,0.0160000007599592,0.0480000022798777,0.976000046357513,0,0,0,0,0,1756383179.76544,0, 2025-08-28 09:12:59.765
63,-340.5235008155,-2919.3528157617,-6498.25942810904,-9441.67663013563,0.0160000007599592,0.0480000022798777,0.976000046357513,0,0,0,0,0,1756383179.76618,0, 2025-08-28 09:12:59.766
63,-335.033327680547,-2946.70270413766,-6500.73898177967,-9552.04855762795,0.0160000007599592,0.0480000022798777,0.976000046357513,0,0,0,0,0,1756383179.76618,0, 2025-08-28 09:12:59.766
64,-284.14824888343,-2966.52417390281,-6478.22104414646,-9583.74046985246,0.0160000007599592,0.0480000022798777,0.976000046357513,0,0,0,0,0,1756383179.77977,0, 2025-08-28 09:12:59.779
64,-338.63111143792,-2898.52905280842,-6505.87760431878,-9492.73374433071,0.0160000007599592,0.0480000022798777,0.976000046357513,0,0,0,0,0,1756383179.77977,0, 2025-08-28 09:12:59.779
65,-345.725701653864,-2982.36265021516,-6519.11311026197,-9540.45860766526,0.0160000007599592,0.0480000022798777,0.976000046357513,0,0,0,0,0,1756383179.79546,0, 2025-08-28 09:12:59.795
65,-302.967425460462,-2981.43141512619,-6467.0088240793,-9623.43576798216,0.0160000007599592,0.0480000022798777,0.976000046357513,0,0,0,0,0,1756383179.79546,0, 2025-08-28 09:12:59.795
66,-311.546755958814,-2915.52315820707,-6452.4157344522,-9533.33783814963,0.0160000007599592,0.0480000022798777,0.976000046357513,0,0,0,0,0,1756383179.79618,0, 2025-08-28 09:12:59.796
66,-341.712789001409,-2930.14990693377,-6475.08700798359,-9488.54879628029,0.0160000007599592,0.0480000022798777,0.976000046357513,0,0,0,0,0,1756383179.79618,0, 2025-08-28 09:12:59.796
67,-308.300522797275,-2978.59657095978,-6436.1509095449,-9572.44597198628,0.0160000007599592,0.0480000022798777,0.976000046357513,0,0,0,0,0,1756383179.80979,0, 2025-08-28 09:12:59.809
67,-287.196267347317,-2912.21708664624,-6443.82144435402,-9555.5977226859,0.0160000007599592,0.0480000022798777,0.976000046357513,0,0,0,0,0,1756383179.80979,0, 2025-08-28 09:12:59.809
68,-339.184616631363,-2931.55984921707,-6496.87566512544,-9495.9500582926,0.0160000007599592,0.0480000022798777,0.976000046357513,0,0,0,0,0,1756383179.82547,0, 2025-08-28 09:12:59.825
68,-321.835220736917,-2948.69607081404,-6444.33755054791,-9551.39781503566,0.0160000007599592,0.0480000022798777,0.976000046357513,0,0,0,0,0,1756383179.82547,0, 2025-08-28 09:12:59.825
69,-276.978860668372,-2958.41607079888,-6420.70886262786,-9611.44938862417,0.0160000007599592,0.0480000022798777,0.976000046357513,0,0,0,0,0,1756383179.82621,0, 2025-08-28 09:12:59.826
69,-324.468110305723,-2915.75877190428,-6460.92400685139,-9532.52627985924,0.0160000007599592,0.0480000022798777,0.976000046357513,0,0,0,0,0,1756383179.82621,0, 2025-08-28 09:12:59.826
70,-335.407317676116,-2947.63019932667,-6446.18506112602,-9563.89282078762,0.0160000007599592,0.0480000022798777,0.976000046357513,0,0,0,0,0,1756383179.83979,0, 2025-08-28 09:12:59.839
70,-288.191080735531,-2957.64565140801,-6408.70752367005,-9646.28281681146,0.0160000007599592,0.0480000022798777,0.976000046357513,0,0,0,0,0,1756383179.83979,0, 2025-08-28 09:12:59.839
71,-297.327656327281,-2905.63112282427,-6438.89599611238,-9584.59690694232,0.0160000007599592,0.0480000022798777,0.976000046357513,0,0,0,0,0,1756383179.85546,0, 2025-08-28 09:12:59.855
71,-336.405870964285,-2935.44934517099,-6502.70616915636,-9554.47201279923,0.0160000007599592,0.0480000022798777,0.976000046357513,0,0,0,0,0,1756383179.85546,0, 2025-08-28 09:12:59.855
72,-300.394374290947,-2960.55529357353,-6459.49910496827,-9639.17700689565,0.0160000007599592,0.0480000022798777,0.976000046357513,0,0,0,0,0,1756383179.85617,0, 2025-08-28 09:12:59.856
72,-289.754358917009,-2896.09437793726,-6441.26335278433,-9580.18008509465,0.0160000007599592,0.0480000022798777,0.976000046357513,0,0,0,0,0,1756383179.85617,0, 2025-08-28 09:12:59.856
73,-337.236128754448,-2902.7925387579,-6481.68045160547,-9530.40949648432,0.0160000007599592,0.0480000022798777,0.976000046357513,0,0,0,0,0,1756383179.86976,0, 2025-08-28 09:12:59.869
73,-325.462923693936,-2925.59096888779,-6449.27047858946,-9551.08740333933,0.0160000007599592,0.0480000022798777,0.976000046357513,0,0,0,0,0,1756383179.86976,0, 2025-08-28 09:12:59.869
74,-279.248979941476,-2915.62787540583,-6400.11323357187,-9574.36454066355,0.0160000007599592,0.0480000022798777,0.976000046357513,0,0,0,0,0,1756383179.88547,0, 2025-08-28 09:12:59.885
74,-324.367133006919,-2895.67176924227,-6448.61225619726,-9486.27493710723,0.0160000007599592,0.0480000022798777,0.976000046357513,0,0,0,0,0,1756383179.88547,0, 2025-08-28 09:12:59.885
75,-332.725809407886,-2928.09296195814,-6452.85704264697,-9515.4723360613,0.0160000007599592,0.0480000022798777,0.976000046357513,0,0,0,0,0,1756383179.8862,0, 2025-08-28 09:12:59.886
75,-290.659414706286,-2945.4834967521,-6380.0823294092,-9590.92481766734,0.0160000007599592,0.0480000022798777,0.976000046357513,0,0,0,0,0,1756383179.8862,0, 2025-08-28 09:12:59.886
76,-311.57667515846,-2936.17488576239,-6440.82578448951,-9555.93805358186,0.0160000007599592,0.0480000022798777,0.976000046357513,0,0,0,0,0,1756383179.89976,0, 2025-08-28 09:12:59.899
76,-347.348818234634,-2935.67747906828,-6489.36968591437,-9515.20306326449,0.0160000007599592,0.0480000022798777,0.976000046357513,0,0,0,0,0,1756383179.89976,0, 2025-08-28 09:12:59.899
77,-315.72422420932,-2966.31847940525,-6436.19578834437,-9608.8389384551,0.0160000007599592,0.0480000022798777,0.976000046357513,0,0,0,0,0,1756383179.91546,0, 2025-08-28 09:12:59.915
77,-290.528518207837,-2922.95433941903,-6448.51127889846,-9590.4722897727,0.0160000007599592,0.0480000022798777,0.976000046357513,0,0,0,0,0,1756383179.91546,0, 2025-08-28 09:12:59.915
78,-346.828972140793,-2918.23084577499,-6498.77179440297,-9508.50116254389,0.0160000007599592,0.0480000022798777,0.976000046357513,0,0,0,0,0,1756383179.9162,0, 2025-08-28 09:12:59.916
78,-333.761761695612,-2960.61513197282,-6504.45270243567,-9587.9067184031,0.0160000007599592,0.0480000022798777,0.976000046357513,0,0,0,0,0,1756383179.9162,0, 2025-08-28 09:12:59.916
79,-290.805270804558,-2935.43812547112,-6465.47920499742,-9598.64023127593,0.0160000007599592,0.0480000022798777,0.976000046357513,0,0,0,0,0,1756383179.92976,0, 2025-08-28 09:12:59.929
79,-336.170257267077,-2906.54365841346,-6523.63090940844,-9487.69235919044,0.0160000007599592,0.0480000022798777,0.976000046357513,0,0,0,0,0,1756383179.92976,0, 2025-08-28 09:12:59.929
80,-338.92656353442,-2918.84044946777,-6508.93684248254,-9507.4876496559,0.0160000007599592,0.0480000022798777,0.976000046357513,0,0,0,0,0,1756383179.94544,0, 2025-08-28 09:12:59.945
80,-300.042823695112,-2943.0862208805,-6484.40683867317,-9572.84614128154,0.0160000007599592,0.0480000022798777,0.976000046357513,0,0,0,0,0,1756383179.94544,0, 2025-08-28 09:12:59.945
81,-313.607440834399,-2883.93596318131,-6491.14987829328,-9492.34479473531,0.0160000007599592,0.0480000022798777,0.976000046357513,0,0,0,0,0,1756383179.94618,0, 2025-08-28 09:12:59.946
81,-331.532781322021,-2901.28535907576,-6497.06266012322,-9451.34801142104,0.0160000007599592,0.0480000022798777,0.976000046357513,0,0,0,0,0,1756383179.94618,0, 2025-08-28 09:12:59.946
82,-306.045363123994,-2941.53042249894,-6436.72685413808,-9548.63028906845,0.0160000007599592,0.0480000022798777,0.976000046357513,0,0,0,0,0,1756383179.95978,0, 2025-08-28 09:12:59.959
82,-293.150188076775,-2896.03079963801,-6426.3598514609,-9509.40621833317,0.0160000007599592,0.0480000022798777,0.976000046357513,0,0,0,0,0,1756383179.95978,0, 2025-08-28 09:12:59.959
83,-339.177136831451,-2895.64185004262,-6470.4607517384,-9477.90504100639,0.0160000007599592,0.0480000022798777,0.976000046357513,0,0,0,0,0,1756383179.97544,0, 2025-08-28 09:12:59.975
83,-322.321407731157,-2955.25211543636,-6461.83280254062,-9562.12758800853,0.0160000007599592,0.0480000022798777,0.976000046357513,0,0,0,0,0,1756383179.97544,0, 2025-08-28 09:12:59.975
84,-285.345016869251,-2914.60314281797,-6409.2685086634,-9590.6667645704,0.0160000007599592,0.0480000022798777,0.976000046357513,0,0,0,0,0,1756383179.97616,0, 2025-08-28 09:12:59.976
84,-330.466909834649,-2894.69939525379,-6450.66172137298,-9487.47918489296,0.0160000007599592,0.0480000022798777,0.976000046357513,0,0,0,0,0,1756383179.97616,0, 2025-08-28 09:12:59.976
85,-337.071573156398,-2911.6635814528,-6426.21773526259,-9499.48052385077,0.0160000007599592,0.0480000022798777,0.976000046357513,0,0,0,0,0,1756383179.98973,0, 2025-08-28 09:12:59.989
85,-288.292058034334,-2915.31746370951,-6411.02252174262,-9569.24835752416,0.0160000007599592,0.0480000022798777,0.976000046357513,0,0,0,0,0,1756383179.98973,0, 2025-08-28 09:12:59.989
86,-316.984570494387,-2908.72402008763,-6454.97756592184,-9514.11101247743,0.0160000007599592,0.0480000022798777,0.976000046357513,0,0,0,0,0,1756383180.00547,0, 2025-08-28 09:13:00.005
86,-343.537860179786,-2900.30176538741,-6459.71975906566,-9462.44055468962,0.0160000007599592,0.0480000022798777,0.976000046357513,0,0,0,0,0,1756383180.00547,0, 2025-08-28 09:13:00.005
87,-313.222231138963,-2927.2103455686,-6420.71260252781,-9554.04192430433,0.0160000007599592,0.0480000022798777,0.976000046357513,0,0,0,0,0,1756383180.00619,0, 2025-08-28 09:13:00.006
87,-295.652181147132,-2876.30282737175,-6435.76569984946,-9504.42841149215,0.0160000007599592,0.0480000022798777,0.976000046357513,0,0,0,0,0,1756383180.00619,0, 2025-08-28 09:13:00.006
88,-344.293319970835,-2884.51190777449,-6522.34438382369,-9424.25991604198,0.0160000007599592,0.0480000022798777,0.976000046357513,0,0,0,0,0,1756383180.01974,0, 2025-08-28 09:13:00.019
88,-332.99134230474,-2937.19961835025,-6510.03263316955,-9514.02125487849,0.0160000007599592,0.0480000022798777,0.976000046357513,0,0,0,0,0,1756383180.01974,0, 2025-08-28 09:13:00.019
89,-284.656875277404,-2915.1828273111,-6460.95018615108,-9543.81329792552,0.0160000007599592,0.0480000022798777,0.976000046357513,0,0,0,0,0,1756383180.03543,0, 2025-08-28 09:13:00.035
89,-341.080745908897,-2888.12465113169,-6519.76385285426,-9435.56189370807,0.0160000007599592,0.0480000022798777,0.976000046357513,0,0,0,0,0,1756383180.03543,0, 2025-08-28 09:13:00.035
90,-346.772873641457,-2925.81162298517,-6535.68086706568,-9451.96135501377,0.0160000007599592,0.0480000022798777,0.976000046357513,0,0,0,0,0,1756383180.03616,0, 2025-08-28 09:13:00.036
90,-300.297136892099,-2930.5276368293,-6484.76586906891,-9519.56378661282,0.0160000007599592,0.0480000022798777,0.976000046357513,0,0,0,0,0,1756383180.03616,0, 2025-08-28 09:13:00.036
91,-324.793481601868,-2888.98856802145,-6516.09501099773,-9447.3762376681,0.0160000007599592,0.0480000022798777,0.976000046357513,0,0,0,0,0,1756383180.04973,0, 2025-08-28 09:13:00.049
91,-349.828371905256,-2907.14204240637,-6568.81638067309,-9420.46391758695,0.0160000007599592,0.0480000022798777,0.976000046357513,0,0,0,0,0,1756383180.04973,0, 2025-08-28 09:13:00.049
92,-319.995189958718,-2938.31036863709,-6498.1958498098,-9482.73699174915,0.0160000007599592,0.0480000022798777,0.976000046357513,0,0,0,0,0,1756383180.0654,0, 2025-08-28 09:13:00.065
92,-312.63506684592,-2909.74501277553,-6490.11766590551,-9437.63379828352,0.0160000007599592,0.0480000022798777,0.976000046357513,0,0,0,0,0,1756383180.0654,0, 2025-08-28 09:13:00.065
93,-346.376444246154,-2886.48657495109,-6560.805514968,-9377.34287109785,0.0160000007599592,0.0480000022798777,0.976000046357513,0,0,0,0,0,1756383180.06614,0, 2025-08-28 09:13:00.066
93,-325.040314998943,-2924.18102660449,-6519.74889325444,-9446.26548738126,0.0160000007599592,0.0480000022798777,0.976000046357513,0,0,0,0,0,1756383180.06614,0, 2025-08-28 09:13:00.066
94,-285.079483972397,-2904.63630943606,-6485.36425306182,-9476.91770741809,0.0160000007599592,0.0480000022798777,0.976000046357513,0,0,0,0,0,1756383180.07981,0, 2025-08-28 09:13:00.079
94,-336.05432036845,-2895.78770614089,-6519.97328725178,-9412.83078177739,0.0160000007599592,0.0480000022798777,0.976000046357513,0,0,0,0,0,1756383180.07981,0, 2025-08-28 09:13:00.079
95,-339.82039962383,-2942.42425858835,-6547.54756962508,-9449.24244774599,0.0160000007599592,0.0480000022798777,0.976000046357513,0,0,0,0,0,1756383180.09543,0, 2025-08-28 09:13:00.095
95,-287.241146146785,-2925.78918358544,-6480.89133271482,-9482.8417089479,0.0160000007599592,0.0480000022798777,0.976000046357513,0,0,0,0,0,1756383180.09543,0, 2025-08-28 09:13:00.095
96,-314.340461225715,-2889.11198471999,-6512.67674243823,-9406.05782295764,0.0160000007599592,0.0480000022798777,0.976000046357513,0,0,0,0,0,1756383180.09614,0, 2025-08-28 09:13:00.096
96,-348.874697416555,-2911.41300815577,-6554.45142494328,-9377.93003539089,0.0160000007599592,0.0480000022798777,0.976000046357513,0,0,0,0,0,1756383180.09614,0, 2025-08-28 09:13:00.096
97,-311.816028755624,-2964.54576682625,-6484.80700796843,-9474.95799984131,0.0160000007599592,0.0480000022798777,0.976000046357513,0,0,0,0,0,1756383180.10974,0, 2025-08-28 09:13:00.109
97,-305.099168435205,-2919.65200775815,-6477.82835465111,-9473.96692635305,0.0160000007599592,0.0480000022798777,0.976000046357513,0,0,0,0,0,1756383180.10974,0, 2025-08-28 09:13:00.109
98,-339.809179923963,-2923.88931440795,-6510.26076706685,-9399.47559903562,0.0160000007599592,0.0480000022798777,0.976000046357513,0,0,0,0,0,1756383180.12543,0, 2025-08-28 09:13:00.125
98,-327.112219574396,-2942.53645558702,-6469.58561514877,-9424.06544124428,0.0160000007599592,0.0480000022798777,0.976000046357513,0,0,0,0,0,1756383180.12543,0, 2025-08-28 09:13:00.125
99,-286.059337760787,-2929.97413163586,-6434.84942436032,-9435.14676481299,0.0160000007599592,0.0480000022798777,0.976000046357513,0,0,0,0,0,1756383180.1262,0, 2025-08-28 09:13:00.126
99,-345.108618161175,-2915.57177690649,-6483.84959357977,-9356.29097424727,0.0160000007599592,0.0480000022798777,0.976000046357513,0,0,0,0,0,1756383180.1262,0, 2025-08-28 09:13:00.126
100,-339.296813630033,-2943.90151907085,-6494.59058625251,-9408.69071252644,0.0160000007599592,0.0480000022798777,0.976000046357513,0,0,0,0,0,1756383180.14048,0, 2025-08-28 09:13:00.140
100,-289.253212322947,-2946.83360063611,-6442.92760826461,-9453.6218705941,0.0160000007599592,0.0480000022798777,0.976000046357513,0,0,0,0,0,1756383180.14048,0, 2025-08-28 09:13:00.140
0,-315.443731712643,-2919.55290040933,-6482.31436464796,-9395.69456018042,0.0160000007599592,0.0480000022798777,0.976000046357513,0,0,0,0,0,1756383180.14121,0, 2025-08-28 09:13:00.141
1,-346.092211849522,-2916.67317744344,-6501.63842771901,-9376.33309810981,0.0160000007599592,0.0480000022798777,0.976000046357513,0,0,0,0,0,1756383180.15473,0, 2025-08-28 09:13:00.154
1,-314.501276923809,-2953.82908350322,-6455.87327196123,-9468.72358661518,0.0160000007599592,0.0480000022798777,0.976000046357513,0,0,0,0,0,1756383180.15473,0, 2025-08-28 09:13:00.154
2,-294.358175762463,-2923.13946446683,-6466.92841623025,-9452.68315570522,0.0160000007599592,0.0480000022798777,0.976000046357513,0,0,0,0,0,1756383180.17046,0, 2025-08-28 09:13:00.170
2,-335.814966771286,-2898.28782926127,-6510.28507641656,-9370.31559908111,0.0160000007599592,0.0480000022798777,0.976000046357513,0,0,0,0,0,1756383180.17046,0, 2025-08-28 09:13:00.170
3,-334.016074892599,-2990.79051476531,-6520.71939729294,-9466.2739521442,0.0160000007599592,0.0480000022798777,0.976000046357513,0,0,0,0,0,1756383180.1712,0, 2025-08-28 09:13:00.171
3,-293.999145366717,-2960.36642862577,-6508.46374513814,-9498.44457156304,0.0160000007599592,0.0480000022798777,0.976000046357513,0,0,0,0,0,1756383180.1712,0, 2025-08-28 09:13:00.171
4,-344.656090266537,-2920.41681729909,-6561.04299861519,-9435.84238620475,0.0160000007599592,0.0480000022798777,0.976000046357513,0,0,0,0,0,1756383180.18476,0, 2025-08-28 09:13:00.184
4,-338.971442333888,-2943.30126512796,-6566.23023985373,-9471.90250157751,0.0160000007599592,0.0480000022798777,0.976000046357513,0,0,0,0,0,1756383180.18476,0, 2025-08-28 09:13:00.184
5,-283.961253885645,-2948.98965296056,-6521.34022068558,-9531.98773426563,0.0160000007599592,0.0480000022798777,0.976000046357513,0,0,0,0,0,1756383180.20046,0, 2025-08-28 09:13:00.200
5,-304.310049544554,-2919.29110741243,-6567.74115943583,-9493.76595671848,0.0160000007599592,0.0480000022798777,0.976000046357513,0,0,0,0,0,1756383180.20046,0, 2025-08-28 09:13:00.200
6,-340.373904817272,-2933.68598234188,-6602.54092852352,-9478.53334419895,0.0160000007599592,0.0480000022798777,0.976000046357513,0,0,0,0,0,1756383180.20118,0, 2025-08-28 09:13:00.201
6,-305.966825224925,-2945.45544750243,-6546.39755038871,-9536.29983891454,0.0160000007599592,0.0480000022798777,0.976000046357513,0,0,0,0,0,1756383180.20118,0, 2025-08-28 09:13:00.201
7,-292.708879882004,-2922.99734826852,-6588.12361419434,-9528.77516020369,0.0160000007599592,0.0480000022798777,0.976000046357513,0,0,0,0,0,1756383180.21473,0, 2025-08-28 09:13:00.214
7,-334.206809790339,-2915.12859876174,-6620.95245600538,-9415.68432544358,0.0160000007599592,0.0480000022798777,0.976000046357513,0,0,0,0,0,1756383180.21473,0, 2025-08-28 09:13:00.214
8,-324.819660901558,-2959.9924386302,-6615.74651526706,-9466.73395983875,0.0160000007599592,0.0480000022798777,0.976000046357513,0,0,0,0,0,1756383180.23047,0, 2025-08-28 09:13:00.230
8,-273.040746015031,-2920.51031479798,-6592.22628444573,-9482.08624915686,0.0160000007599592,0.0480000022798777,0.976000046357513,0,0,0,0,0,1756383180.23047,0, 2025-08-28 09:13:00.230
9,-326.252042584587,-2906.29869496636,-6659.96335244318,-9419.04649550375,0.0160000007599592,0.0480000022798777,0.976000046357513,0,0,0,0,0,1756383180.23119,0, 2025-08-28 09:13:00.231
9,-334.158191090915,-2934.28062643483,-6662.49900461314,-9441.23532194085,0.0160000007599592,0.0480000022798777,0.976000046357513,0,0,0,0,0,1756383180.23119,0, 2025-08-28 09:13:00.231
10,-277.442608262878,-2936.99953370262,-6592.76109013939,-9481.55144346319,0.0160000007599592,0.0480000022798777,0.976000046357513,0,0,0,0,0,1756383180.24475,0, 2025-08-28 09:13:00.244
10,-304.717698639724,-2914.67233096715,-6639.28170568822,-9450.37937733252,0.0160000007599592,0.0480000022798777,0.976000046357513,0,0,0,0,0,1756383180.24475,0, 2025-08-28 09:13:00.244
11,-342.079299197067,-2917.70912973117,-6663.60975489998,-9455.12905027624,0.0160000007599592,0.0480000022798777,0.976000046357513,0,0,0,0,0,1756383180.26046,0, 2025-08-28 09:13:00.260
11,-304.620461240876,-2938.60021088365,-6606.75579577358,-9527.84018521477,0.0160000007599592,0.0480000022798777,0.976000046357513,0,0,0,0,0,1756383180.26046,0, 2025-08-28 09:13:00.260
12,-290.367702509742,-2888.56782927643,-6601.19456453947,-9459.53465242405,0,0.0480000022798777,0.976000046357513,0,0,0,0,0,1756383180.26118,0, 2025-08-28 09:13:00.261
12,-331.061553927604,-2892.31146913208,-6659.52952404833,-9431.36946585774,0,0.0480000022798777,0.976000046357513,0,0,0,0,0,1756383180.26118,0, 2025-08-28 09:13:00.261
13,-325.56390099274,-2965.31431626715,-6644.77935862308,-9511.88577200379,0,0.0480000022798777,0.976000046357513,0,0,0,0,0,1756383180.2911,0, 2025-08-28 09:13:00.291
13,-273.781246206257,-2927.64978381339,-6623.37217127671,-9506.39559886884,0,0.0480000022798777,0.976000046357513,0,0,0,0,0,1756383180.2911,0, 2025-08-28 09:13:00.291
14,-334.098352691624,-2903.95003779419,-6709.33003185829,-9425.31082792953,0,0.0480000022798777,0.976000046357513,0,0,0,0,0,1756383180.2918,0, 2025-08-28 09:13:00.291
14,-331.74221571954,-2941.25179995224,-6711.57397183171,-9481.33826916572,0,0.0480000022798777,0.976000046357513,0,0,0,0,0,1756383180.2918,0, 2025-08-28 09:13:00.291
15,-286.149095359724,-2951.90303502604,-6665.06457598275,-9565.28406357113,0,0.0480000022798777,0.976000046357513,0,0,0,0,0,1756383180.29258,0, 2025-08-28 09:13:00.292
15,-319.509002964478,-2910.37144601811,-6686.46802342916,-9480.470612376,0,0.0480000022798777,0.976000046357513,0,0,0,0,0,1756383180.29258,0, 2025-08-28 09:13:00.292
16,-330.395851735491,-2927.23091501836,-6729.46939311968,-9454.53440618329,0,0.0480000022798777,0.976000046357513,0,0,0,0,0,1756383180.30478,0, 2025-08-28 09:13:00.304
16,-304.848595138174,-2969.94057251234,-6686.77843512548,-9539.13468308095,0,0.0480000022798777,0.976000046357513,0,0,0,0,0,1756383180.30478,0, 2025-08-28 09:13:00.304
17,-286.564224254806,-2908.26962224301,-6682.39153247746,-9506.26844227035,0,0.0480000022798777,0.976000046357513,0,0,0,0,0,1756383180.32042,0, 2025-08-28 09:13:00.320
17,-331.944170317147,-2906.8185410602,-6712.46406802116,-9440.17319035344,0,0.0480000022798777,0.976000046357513,0,0,0,0,0,1756383180.32042,0, 2025-08-28 09:13:00.320
18,-317.6502726865,-2948.783958463,-6681.6959110857,-9499.74979664758,0,0.0480000022798777,0.976000046357513,0,0,0,0,0,1756383180.32121,0, 2025-08-28 09:13:00.321
18,-276.107463978697,-2918.21775612514,-6651.63833514182,-9516.53820754867,0,0.0480000022798777,0.976000046357513,0,0,0,0,0,1756383180.32121,0, 2025-08-28 09:13:00.321
19,-325.459183793981,-2884.71199242212,-6712.46406802116,-9427.1358991079,0,0.0480000022798777,0.976000046357513,0,0,0,0,0,1756383180.33476,0, 2025-08-28 09:13:00.334
19,-328.65305835614,-2913.89443177637,-6696.36005881196,-9444.77326729894,0,0.0480000022798777,0.976000046357513,0,0,0,0,0,1756383180.33476,0, 2025-08-28 09:13:00.334
20,-284.559637878556,-2940.33552446309,-6647.05321779614,-9518.73726872262,0,0.0480000022798777,0.976000046357513,0,0,0,0,0,1756383180.35045,0, 2025-08-28 09:13:00.350
20,-312.650026445743,-2884.9326465195,-6684.71401034994,-9447.43607606739,0,0.0480000022798777,0.976000046357513,0,0,0,0,0,1756383180.35045,0, 2025-08-28 09:13:00.350
21,-335.167964078952,-2901.5265826229,-6727.10577634769,-9424.97049703356,0,0.0480000022798777,0.976000046357513,0,0,0,0,0,1756383180.35116,0, 2025-08-28 09:13:00.351
21,-301.116174982395,-2944.76730591059,-6669.90026662545,-9510.04948112555,0,0.0480000022798777,0.976000046357513,0,0,0,0,0,1756383180.35116,0, 2025-08-28 09:13:00.351
22,-281.676175012719,-2890.68461265136,-6676.65078604547,-9477.28421761375,0.0160000007599592,0.0480000022798777,0.976000046357513,0,0,0,0,0,1756383180.36472,0, 2025-08-28 09:13:00.364
22,-329.415997947101,-2893.75133061502,-6705.72476830101,-9409.62194761541,0.0160000007599592,0.0480000022798777,0.976000046357513,0,0,0,0,0,1756383180.36472,0, 2025-08-28 09:13:00.364
23,-314.246963726822,-2944.13526281808,-6687.30576101923,-9509.11076623667,0.0160000007599592,0.0480000022798777,0.976000046357513,0,0,0,0,0,1756383180.38042,0, 2025-08-28 09:13:00.380
23,-276.144862978254,-2913.06043408625,-6652.41997423256,-9533.96614134219,0.0160000007599592,0.0480000022798777,0.976000046357513,0,0,0,0,0,1756383180.38042,0, 2025-08-28 09:13:00.380
24,-327.710603567306,-2881.80235025659,-6709.38239045767,-9439.94505645614,0.0160000007599592,0.0480000022798777,0.976000046357513,0,0,0,0,0,1756383180.38124,0, 2025-08-28 09:13:00.381
24,-330.98675592849,-2919.10037251469,-6740.08322919393,-9495.37411369942,0.0160000007599592,0.0480000022798777,0.976000046357513,0,0,0,0,0,1756383180.38124,0, 2025-08-28 09:13:00.381
25,-285.442254268099,-2940.74691345822,-6685.04312154604,-9546.9884729879,0.0160000007599592,0.0480000022798777,0.976000046357513,0,0,0,0,0,1756383180.39478,0, 2025-08-28 09:13:00.394
25,-308.016290400643,-2872.88642876223,-6724.88427577401,-9459.33269782644,0.0160000007599592,0.0480000022798777,0.976000046357513,0,0,0,0,0,1756383180.39478,0, 2025-08-28 09:13:00.394
26,-333.746802095789,-2916.88261184096,-6768.88793865265,-9463.52512567677,0.0160000007599592,0.0480000022798777,0.976000046357513,0,0,0,0,0,1756383180.41044,0, 2025-08-28 09:13:00.410
26,-297.559530124534,-2946.24082649313,-6728.10432963586,-9560.03324403334,0.0160000007599592,0.0480000022798777,0.976000046357513,0,0,0,0,0,1756383180.41044,0, 2025-08-28 09:13:00.410
27,-284.107109983917,-2903.94629789423,-6715.72526078252,-9495.66582589597,0.0160000007599592,0.0480000022798777,0.976000046357513,0,0,0,0,0,1756383180.41115,0, 2025-08-28 09:13:00.411
27,-327.777921766508,-2888.7398646744,-6744.42151314253,-9416.1892119376,0.0160000007599592,0.0480000022798777,0.976000046357513,0,0,0,0,0,1756383180.41115,0, 2025-08-28 09:13:00.411
28,-317.085547793191,-2946.29318509251,-6720.77038582275,-9498.28001596499,0.0160000007599592,0.0480000022798777,0.976000046357513,0,0,0,0,0,1756383180.42475,0, 2025-08-28 09:13:00.424
28,-281.092750619631,-2936.97335440293,-6700.21589566628,-9505.49802287947,0.0160000007599592,0.0480000022798777,0.976000046357513,0,0,0,0,0,1756383180.42475,0, 2025-08-28 09:13:00.424
29,-322.912311924156,-2916.21690964885,-6761.18374474393,-9445.48010839056,0.0160000007599592,0.0480000022798777,0.976000046357513,0,0,0,0,0,1756383180.44043,0, 2025-08-28 09:13:00.440
