Sample Index, EXG Channel 0, EXG Channel 1, EXG Channel 2, EXG Channel 3, Accel Channel 0, Accel Channel 1, Accel Channel 2, Other, Other, Other, Other, Other, Timestamp, Marker Channel, Timestamp (Formatted)
65.0, -232.5712885945104, 75.09719111025333, 132.32888013217598, 131.55098094139248, 0.0, 0.0, 0.0, 0.0, 0.0, 0.0, 0.0, 0.0, 1.7564803902042809E9, 0.0, 2025-08-29 12:13:10.204
65.0, -198.20534790167585, 4.658045394811779, 47.92307803221047, 81.14086943864822, 0.0, 0.0, 0.0, 0.0, 0.0, 0.0, 0.0, 0.0, 1.7564803902042809E9, 0.0, 2025-08-29 12:13:10.204
0.0, 410.4633698868565, 434.61938370065764, 109.89509024797007, 19.51292801881209, 0.0, 0.0, 0.0, 0.0, 0.0, 0.0, 0.0, 0.0, 1.7564803902330732E9, 0.0, 2025-08-29 12:13:10.233
1.0, 355.2287874412723, 639.8108647195622, 95.52265471825376, 6.053028078284115, 0.0, 0.01600000075995922, 0.0, 0.0, 0.0, 0.0, 0.0, 0.0, 1.7564803902464447E9, 0.0, 2025-08-29 12:13:10.246
1.0, 479.81607466517016, 445.3454167735763, 187.6214310270734, 103.94116951851174, 0.0, 0.01600000075995922, 0.0, 0.0, 0.0, 0.0, 0.0, 0.0, 1.7564803902464447E9, 0.0, 2025-08-29 12:13:10.246
2.0, 452.05292734410614, 539.6095951567404, 141.32146957563236, 47.939907582011074, 0.0, 0.01600000075995922, 0.0, 0.0, 0.0, 0.0, 0.0, 0.0, 1.756480390263142E9, 0.0, 2025-08-29 12:13:10.263
2.0, 538.035097275395, 386.1689797746949, 79.49718340812251, -11.236529416870326, 0.0, 0.01600000075995922, 0.0, 0.0, 0.0, 0.0, 0.0, 0.0, 1.756480390263142E9, 0.0, 2025-08-29 12:13:10.263
3.0, 319.8044550609775, 189.24828750779852, 170.36553263152018, 71.54615610232577, 0.0, 0.01600000075995922, 0.0, 0.0, 0.0, 0.0, 0.0, 0.0, 1.7564803902638924E9, 0.0, 2025-08-29 12:13:10.263
3.0, 387.40314676007256, 0.9087956892326474, 184.9174833591096, 86.75632922211662, 0.0, 0.01600000075995922, 0.0, 0.0, 0.0, 0.0, 0.0, 0.0, 1.7564803902638924E9, 0.0, 2025-08-29 12:13:10.263
4.0, 256.90307770622894, 193.86706395307556, 93.47692944249138, 1.8344209282658994, 0.0, 0.01600000075995922, 0.0, 0.0, 0.0, 0.0, 0.0, 0.0, 1.7564803902762518E9, 0.0, 2025-08-29 12:13:10.276
4.0, 269.10450131166726, 70.54012301424518, 125.1912810667418, 32.78583296155557, 0.0, 0.01600000075995922, 0.0, 0.0, 0.0, 0.0, 0.0, 0.0, 1.7564803902762518E9, 0.0, 2025-08-29 12:13:10.276
5.0, 207.29330479400232, 258.75058828433976, 191.20051528466865, 88.51034230133519, 0.0, 0.01600000075995922, 0.0, 0.0, 0.0, 0.0, 0.0, 0.0, 1.7564803902920046E9, 0.0, 2025-08-29 12:13:10.292
5.0, 417.72251570085064, 440.0085795368068, 115.39648308278993, 21.06872640037909, 0.0, 0.01600000075995922, 0.0, 0.0, 0.0, 0.0, 0.0, 0.0, 1.7564803902920046E9, 0.0, 2025-08-29 12:13:10.292
6.0, 361.3697031685151, 644.6577750621364, 87.6913042110391, 1.7035244298167527, 0.0, 0.01600000075995922, 0.0, 0.0, 0.0, 0.0, 0.0, 0.0, 1.7564803902926888E9, 0.0, 2025-08-29 12:13:10.292
6.0, 482.63221933180466, 444.35434328531846, 183.5823390749283, 86.27388212783262, 0.0, 0.01600000075995922, 0.0, 0.0, 0.0, 0.0, 0.0, 0.0, 1.7564803902926888E9, 0.0, 2025-08-29 12:13:10.292
7.0, 448.42148448713124, 547.0706955683418, 146.92757960921153, 43.429588235449046, 0.0, 0.01600000075995922, 0.0, 0.0, 0.0, 0.0, 0.0, 0.0, 1.7564803903062248E9, 0.0, 2025-08-29 12:13:10.306
7.0, 541.4309264351614, 394.84928757185116, 78.70432461751625, -15.48505576653406, 0.0, 0.01600000075995922, 0.0, 0.0, 0.0, 0.0, 0.0, 0.0, 1.7564803903062248E9, 0.0, 2025-08-29 12:13:10.306
8.0, 321.4948898409493, 186.15913014439866, 162.99044991889969, 70.18857241841033, 0.0, 0.01600000075995922, 0.0, 0.0, 0.0, 0.0, 0.0, 0.0, 1.7564803903219583E9, 0.0, 2025-08-29 12:13:10.321
8.0, 386.2437777738087, -3.653882256709039, 180.93822980625555, 74.11920727184042, 0.0, 0.01600000075995922, 0.0, 0.0, 0.0, 0.0, 0.0, 0.0, 1.7564803903219583E9, 0.0, 2025-08-29 12:13:10.321
9.0, 263.31326623028144, 203.09713704371825, 85.46980363735929, -3.9960831026546657, 0.0, 0.01600000075995922, 0.0, 0.0, 0.0, 0.0, 0.0, 0.0, 1.756480390322684E9, 0.0, 2025-08-29 12:13:10.322
9.0, 271.52421658299863, 75.08410146040842, 130.24762580683455, 32.591358163859695, 0.0, 0.01600000075995922, 0.0, 0.0, 0.0, 0.0, 0.0, 0.0, 1.756480390322684E9, 0.0, 2025-08-29 12:13:10.322
10.0, 195.77067303052172, 245.4290646421723, 187.26240063132718, 84.7629625457339, 0.0, 0.01600000075995922, 0.49600002355873585, 0.0, 0.0, 0.0, 0.0, 0.0, 1.7564803903362544E9, 0.0, 2025-08-29 12:13:10.336
10.0, 411.49184237467125, 446.4898261600174, 105.66900329804048, 8.63729894766584, 0.0, 0.01600000075995922, 0.49600002355873585, 0.0, 0.0, 0.0, 0.0, 0.0, 1.7564803903362544E9, 0.0, 2025-08-29 12:13:10.336
11.0, 363.35559004498646, 654.8003837419674, 104.12442461634055, 11.44596381438896, 0.0, 0.01600000075995922, 0.49600002355873585, 0.0, 0.0, 0.0, 0.0, 0.0, 1.7564803903519473E9, 0.0, 2025-08-29 12:13:10.351
11.0, 480.8782062525861, 440.73412012821063, 186.30124634271488, 88.65619839960709, 0.0, 0.01600000075995922, 0.49600002355873585, 0.0, 0.0, 0.0, 0.0, 0.0, 1.7564803903519473E9, 0.0, 2025-08-29 12:13:10.351
12.0, 462.595705319196, 548.9481253460981, 145.40544032724574, 58.94269325165078, 0.0, 0.01600000075995922, 0.49600002355873585, 0.0, 0.0, 0.0, 0.0, 0.0, 1.7564803903527155E9, 0.0, 2025-08-29 12:13:10.352
12.0, 548.4207994523458, 401.5736276921816, 76.74087714077905, -16.25547515740618, 0.0, 0.01600000075995922, 0.49600002355873585, 0.0, 0.0, 0.0, 0.0, 0.0, 1.7564803903527155E9, 0.0, 2025-08-29 12:13:10.352
13.0, 314.49005722394213, 177.9911886411719, 161.47205053688958, 61.82989601744339, 0.0, 0.01600000075995922, 0.49600002355873585, 0.0, 0.0, 0.0, 0.0, 0.0, 1.7564803903662987E9, 0.0, 2025-08-29 12:13:10.366
13.0, 383.1658401102759, -3.062978063710034, 172.94232370099053, 77.32056163391098, 0.0, 0.01600000075995922, 0.49600002355873585, 0.0, 0.0, 0.0, 0.0, 0.0, 1.7564803903662987E9, 0.0, 2025-08-29 12:13:10.366
14.0, 264.7643474130891, 204.27146562980488, 80.71639079367742, -13.282254692632705, 0.0, 0.01600000075995922, 0.49600002355873585, 0.0, 0.0, 0.0, 0.0, 0.0, 1.756480390381959E9, 0.0, 2025-08-29 12:13:10.381
14.0, 272.7209845688194, 81.58404758339748, 124.34606367675588, 30.37359749013558, 0.0, 0.01600000075995922, 0.49600002355873585, 0.0, 0.0, 0.0, 0.0, 0.0, 1.756480390381959E9, 0.0, 2025-08-29 12:13:10.381
15.0, 199.79480538284406, 250.07402038713917, 189.8840705002658, 89.53507488919422, 0.0, 0.01600000075995922, 0.49600002355873585, 0.0, 0.0, 0.0, 0.0, 0.0, 1.7564803903826869E9, 0.0, 2025-08-29 12:13:10.382
15.0, 417.26998780621216, 443.53904509497806, 108.06627916963771, 14.965209672693163, 0.0, 0.01600000075995922, 0.49600002355873585, 0.0, 0.0, 0.0, 0.0, 0.0, 1.7564803903826869E9, 0.0, 2025-08-29 12:13:10.382
16.0, 372.58940303558484, 654.9462398402393, 98.03960738843307, 9.112266242038459, 0.0, 0.01600000075995922, 0.49600002355873585, 0.0, 0.0, 0.0, 0.0, 0.0, 1.756480390396265E9, 0.0, 2025-08-29 12:13:10.396
16.0, 475.2795760189183, 437.5290258661844, 186.19278924399987, 91.92113106092438, 0.0, 0.01600000075995922, 0.49600002355873585, 0.0, 0.0, 0.0, 0.0, 0.0, 1.756480390396265E9, 0.0, 2025-08-29 12:13:10.396
17.0, 466.09625167772174, 557.2656628475524, 151.59123485395685, 53.104709420818835, 0.0, 0.01600000075995922, 0.49600002355873585, 0.0, 0.0, 0.0, 0.0, 0.0, 1.7564803904119213E9, 0.0, 2025-08-29 12:13:10.411
17.0, 554.0306493858807, 405.85207324149087, 70.93655240954831, -17.231589045841247, 0.0, 0.01600000075995922, 0.49600002355873585, 0.0, 0.0, 0.0, 0.0, 0.0, 1.7564803904119213E9, 0.0, 2025-08-29 12:13:10.411
18.0, 320.6945512504317, 180.3248862135224, 158.2370370752178, 65.6034550727345, 0.0, 0.01600000075995922, 0.49600002355873585, 0.0, 0.0, 0.0, 0.0, 0.0, 1.7564803904126601E9, 0.0, 2025-08-29 12:13:10.412
18.0, 369.8929351675324, -10.913028070703149, 174.3260866845958, 76.090134548489, 0.0, 0.01600000075995922, 0.49600002355873585, 0.0, 0.0, 0.0, 0.0, 0.0, 1.7564803904126601E9, 0.0, 2025-08-29 12:13:10.412
19.0, 278.7478333474137, 209.32781036989763, 83.5400152602233, -5.682777982670814, 0.0, 0.01600000075995922, 0.49600002355873585, 0.0, 0.0, 0.0, 0.0, 0.0, 1.756480390426257E9, 0.0, 2025-08-29 12:13:10.426
19.0, 285.6124197160825, 86.53193522477522, 129.98209290998057, 43.511866034474224, 0.0, 0.01600000075995922, 0.49600002355873585, 0.0, 0.0, 0.0, 0.0, 0.0, 1.756480390426257E9, 0.0, 2025-08-29 12:13:10.426
20.0, 190.96864148741588, 238.9814771185629, 192.54313936876133, 87.57536731241271, 0.0, 0.01600000075995922, 0.7360000349581242, 0.0, 0.0, 0.0, 0.0, 0.0, 1.756480390441968E9, 0.0, 2025-08-29 12:13:10.441
20.0, 411.9855091688223, 445.4912728718482, 106.48430148838088, 9.03372834296897, 0.0, 0.01600000075995922, 0.7360000349581242, 0.0, 0.0, 0.0, 0.0, 0.0, 1.756480390441968E9, 0.0, 2025-08-29 12:13:10.441
21.0, 364.05869123665616, 644.9233079589903, 78.30041542230174, -9.127225841861218, 0.0, 0.01600000075995922, 0.7360000349581242, 0.0, 0.0, 0.0, 0.0, 0.0, 1.7564803904426494E9, 0.0, 2025-08-29 12:13:10.442
21.0, 473.3273482420482, 425.46410860912874, 185.41489005321637, 92.88602524949238, 0.0, 0.01600000075995922, 0.7360000349581242, 0.0, 0.0, 0.0, 0.0, 0.0, 1.7564803904426494E9, 0.0, 2025-08-29 12:13:10.442
22.0, 449.9847626686096, 543.8805609061383, 140.566009784583, 60.18434003693983, 0.0, 0.01600000075995922, 0.7360000349581242, 0.0, 0.0, 0.0, 0.0, 0.0, 1.7564803904564064E9, 0.0, 2025-08-29 12:13:10.456
22.0, 560.1603454132564, 408.86269270582125, 72.13706029532477, -24.266340862493962, 0.0, 0.01600000075995922, 0.7360000349581242, 0.0, 0.0, 0.0, 0.0, 0.0, 1.7564803904564064E9, 0.0, 2025-08-29 12:13:10.456
23.0, 318.0504419817589, 181.71238909708336, 156.16139259980991, 71.48257780307904, 0.0, 0.01600000075995922, 0.7360000349581242, 0.0, 0.0, 0.0, 0.0, 0.0, 1.7564803904719293E9, 0.0, 2025-08-29 12:13:10.471
23.0, 373.80113062122837, -11.201000367291272, 188.67234291462228, 90.86273937346414, 0.0, 0.01600000075995922, 0.7360000349581242, 0.0, 0.0, 0.0, 0.0, 0.0, 1.7564803904719293E9, 0.0, 2025-08-29 12:13:10.471
24.0, 274.402069598902, 215.12839520117268, 83.7232703580521, -1.164978836197406, 0.0, 0.01600000075995922, 0.7360000349581242, 0.0, 0.0, 0.0, 0.0, 0.0, 1.7564803904726925E9, 0.0, 2025-08-29 12:13:10.472
24.0, 274.0392993032001, 70.34564821654931, 123.65418218495324, 33.025186558719724, 0.0, 0.01600000075995922, 0.7360000349581242, 0.0, 0.0, 0.0, 0.0, 0.0, 1.7564803904726925E9, 0.0, 2025-08-29 12:13:10.472
25.0, 191.83816822711378, 236.9507114426233, 194.23357414873317, 97.56090019410476, 0.0, 0.01600000075995922, 0.7360000349581242, 0.0, 0.0, 0.0, 0.0, 0.0, 1.756480390486262E9, 0.0, 2025-08-29 12:13:10.486
25.0, 427.945532229729, 465.5446164342575, 110.94974203547463, 21.56613309448585, 0.0, 0.01600000075995922, 0.7360000349581242, 0.0, 0.0, 0.0, 0.0, 0.0, 1.756480390486262E9, 0.0, 2025-08-29 12:13:10.486
26.0, 375.8188066473231, 660.7169054718688, 92.04080785950646, 7.612566359806806, 0.0, 0.01600000075995922, 0.7360000349581242, 0.0, 0.0, 0.0, 0.0, 0.0, 1.7564803905019255E9, 0.0, 2025-08-29 12:13:10.501
26.0, 468.6954821469262, 424.0803456255235, 185.2952132546343, 90.68696407554671, 0.0, 0.01600000075995922, 0.7360000349581242, 0.0, 0.0, 0.0, 0.0, 0.0, 1.7564803905019255E9, 0.0, 2025-08-29 12:13:10.501
27.0, 457.6422078278847, 551.6258937143721, 144.6836396357976, 49.30871096579358, 0.0, 0.01600000075995922, 0.7360000349581242, 0.0, 0.0, 0.0, 0.0, 0.0, 1.7564803905026648E9, 0.0, 2025-08-29 12:13:10.502
27.0, 554.0661784354597, 414.37904514046386, 74.48945736745372, -13.08777989493683, 0.0, 0.01600000075995922, 0.7360000349581242, 0.0, 0.0, 0.0, 0.0, 0.0, 1.7564803905026648E9, 0.0, 2025-08-29 12:13:10.502
28.0, 317.47262743860483, 178.34273923700675, 167.56060766475275, 64.85921498155221, 0.0, 0.01600000075995922, 0.7360000349581242, 0.0, 0.0, 0.0, 0.0, 0.0, 1.7564803905162532E9, 0.0, 2025-08-29 12:13:10.516
28.0, 374.41634416393936, -13.033551345579326, 184.13584426837042, 78.04236232535914, 0.0, 0.01600000075995922, 0.7360000349581242, 0.0, 0.0, 0.0, 0.0, 0.0, 1.7564803905162532E9, 0.0, 2025-08-29 12:13:10.516
29.0, 289.7337894672528, 231.73355100443587, 89.3219005917199, -2.900292415637523, 0.0, 0.01600000075995922, 0.7360000349581242, 0.0, 0.0, 0.0, 0.0, 0.0, 1.756480390531906E9, 0.0, 2025-08-29 12:13:10.531
29.0, 269.5009307069704, 70.24093101778999, 120.04517872771248, 28.82153900852427, 0.0, 0.01600000075995922, 0.7360000349581242, 0.0, 0.0, 0.0, 0.0, 0.0, 1.756480390531906E9, 0.0, 2025-08-29 12:13:10.531
30.0, 188.53770651621744, 239.6471793106757, 198.81121169449762, 101.86178514314815, 0.0, 0.01600000075995922, 0.8640000410377979, 0.0, 0.0, 0.0, 0.0, 0.0, 1.756480390532648E9, 0.0, 2025-08-29 12:13:10.532
30.0, 418.1077253962867, 456.191126645077, 105.96445539453998, 9.351619839202613, 0.0, 0.01600000075995922, 0.8640000410377979, 0.0, 0.0, 0.0, 0.0, 0.0, 1.756480390532648E9, 0.0, 2025-08-29 12:13:10.532
31.0, 373.154127928894, 652.2310724724084, 45.57255091005936, -40.15717577422038, 0.0, 0.03200000151991844, 0.8640000410377979, 0.0, 0.0, 0.0, 0.0, 0.0, 1.7564803905462973E9, 0.0, 2025-08-29 12:13:10.546
31.0, 471.95854485826567, 411.11785237910226, 189.700815402437, 101.3269794494845, 0.0, 0.03200000151991844, 0.8640000410377979, 0.0, 0.0, 0.0, 0.0, 0.0, 1.7564803905462973E9, 0.0, 2025-08-29 12:13:10.546
32.0, 462.13195772469044, 557.7967286412604, 150.18877237057313, 53.908787911292166, 0.0, 0.03200000151991844, 0.8640000410377979, 0.0, 0.0, 0.0, 0.0, 0.0, 1.7564803905619051E9, 0.0, 2025-08-29 12:13:10.561
32.0, 577.9622692023404, 437.2672328692861, 88.92547119641677, 16.090919559355825, 0.0, 0.03200000151991844, 0.8640000410377979, 0.0, 0.0, 0.0, 0.0, 0.0, 1.7564803905619051E9, 0.0, 2025-08-29 12:13:10.561
33.0, 804.8376901643351, 668.1967053832486, 165.05113479448482, 71.41525960387662, 0.0, 0.03200000151991844, 0.8640000410377979, 0.0, 0.0, 0.0, 0.0, 0.0, 1.7564803905626192E9, 0.0, 2025-08-29 12:13:10.562
33.0, 868.8236385062337, 475.3992528175004, 201.61239676130936, 110.17932264460251, 0.0, 0.03200000151991844, 0.8640000410377979, 0.0, 0.0, 0.0, 0.0, 0.0, 1.7564803905626192E9, 0.0, 2025-08-29 12:13:10.562
34.0, 788.8383981538936, 242.88593267230317, 106.31600599037483, 19.269834521692246, 0.0, 0.03200000151991844, 0.8640000410377979, 0.0, 0.0, 0.0, 0.0, 0.0, 1.7564803905762513E9, 0.0, 2025-08-29 12:13:10.576
34.0, 787.9857009639964, 102.20959583902732, 147.43246610322967, 66.29533656453714, 0.0, 0.03200000151991844, 0.8640000410377979, 0.0, 0.0, 0.0, 0.0, 0.0, 1.7564803905762513E9, 0.0, 2025-08-29 12:13:10.576
35.0, 703.1629000189714, 260.4447629642673, 219.50781804928556, 131.50423219194636, 0.0, 0.03200000151991844, 0.8640000410377979, 0.0, 0.0, 0.0, 0.0, 0.0, 1.7564803905918975E9, 0.0, 2025-08-29 12:13:10.591
35.0, 939.8948273141868, 485.15665180189535, 130.69641380151734, 46.95631389366463, 0.0, 0.03200000151991844, 0.8640000410377979, 0.0, 0.0, 0.0, 0.0, 0.0, 1.7564803905918975E9, 0.0, 2025-08-29 12:13:10.591
36.0, 884.4545503710397, 680.0821074424312, 112.67383591504768, 28.107218116987497, 0.0, 0.03200000151991844, 0.8640000410377979, 0.0, 0.0, 0.0, 0.0, 0.0, 1.7564803905926363E9, 0.0, 2025-08-29 12:13:10.592
36.0, 965.774935007561, 920.9989827880636, 197.4835472102277, 100.81087325559929, 0.0, 0.03200000151991844, 0.8640000410377979, 0.0, 0.0, 0.0, 0.0, 0.0, 1.7564803905926363E9, 0.0, 2025-08-29 12:13:10.592
37.0, 966.8445463948883, 1069.3944731298834, 172.41873770719394, 83.03886866616085, 0.0, 0.03200000151991844, 0.8640000410377979, 0.0, 0.0, 0.0, 0.0, 0.0, 1.7564803906062565E9, 0.0, 2025-08-29 12:13:10.606
37.0, 1081.2499559894204, 953.0761047080159, 108.4776681647636, 17.186710246372968, 0.0, 0.03200000151991844, 0.8640000410377979, 0.0, 0.0, 0.0, 0.0, 0.0, 1.7564803906062565E9, 0.0, 2025-08-29 12:13:10.606
38.0, 1305.2718332852237, 1163.4997057649307, 180.60163881024346, 80.25638309912756, 0.0, 0.03200000151991844, 0.8640000410377979, 0.0, 0.0, 0.0, 0.0, 0.0, 1.7564803906218803E9, 0.0, 2025-08-29 12:13:10.621
38.0, 1360.3829990322702, 971.5586902890354, 190.38147719437256, 91.91739116096869, 0.0, 0.03200000151991844, 0.8640000410377979, 0.0, 0.0, 0.0, 0.0, 0.0, 1.7564803906218803E9, 0.0, 2025-08-29 12:13:10.621
39.0, 1276.9757502204739, 734.8604220934212, 93.98181593650952, 1.3631935338489711, 0.0, 0.03200000151991844, 0.8640000410377979, 0.0, 0.0, 0.0, 0.0, 0.0, 1.7564803906226475E9, 0.0, 2025-08-29 12:13:10.622
39.0, 1287.3371430477127, 592.4188524810597, 124.72005367232487, 55.43840699316934, 0.0, 0.03200000151991844, 0.8640000410377979, 0.0, 0.0, 0.0, 0.0, 0.0, 1.7564803906226475E9, 0.0, 2025-08-29 12:13:10.622
40.0, 1183.9419989227317, 738.2786906529218, 199.4507345869206, 119.4804538344033, 0.0, 0.03200000151991844, 0.9280000440776348, 0.0, 0.0, 0.0, 0.0, 0.0, 1.756480390636228E9, 0.0, 2025-08-29 12:13:10.636
40.0, 1427.9330720319413, 980.3063162853941, 116.76154656661674, 41.62321655685082, 0.0, 0.03200000151991844, 0.9280000440776348, 0.0, 0.0, 0.0, 0.0, 0.0, 1.756480390636228E9, 0.0, 2025-08-29 12:13:10.636
41.0, 1396.1775815081783, 1193.6657388075255, 94.18377053411677, 21.49133509537205, 0.0, 0.03200000151991844, 0.9280000440776348, 0.0, 0.0, 0.0, 0.0, 0.0, 1.7564803906519024E9, 0.0, 2025-08-29 12:13:10.651
41.0, 1466.229647578206, 1413.9982047970407, 186.87345103593543, 108.72450156183913, 0.0, 0.03200000151991844, 0.9280000440776348, 0.0, 0.0, 0.0, 0.0, 0.0, 1.7564803906519024E9, 0.0, 2025-08-29 12:13:10.651
42.0, 1466.0894013298675, 1557.1989741004072, 163.25598281575367, 82.87805296806619, 0.0, 0.03200000151991844, 0.9280000440776348, 0.0, 0.0, 0.0, 0.0, 0.0, 1.7564803906526356E9, 0.0, 2025-08-29 12:13:10.652
42.0, 1566.0812364951707, 1424.3839069739915, 72.97105798544362, -3.1658253124915063, 0.0, 0.03200000151991844, 0.9280000440776348, 0.0, 0.0, 0.0, 0.0, 0.0, 1.7564803906526356E9, 0.0, 2025-08-29 12:13:10.652
43.0, 1775.6484004622325, 1630.1176734864712, 149.5679489779286, 63.183739801403135, 0.0, 0.03200000151991844, 0.9280000440776348, 0.0, 0.0, 0.0, 0.0, 0.0, 1.7564803906662292E9, 0.0, 2025-08-29 12:13:10.666
43.0, 1842.577650069259, 1448.6259384867735, 179.93593661813065, 92.08194675901905, 0.0, 0.03200000151991844, 0.9280000440776348, 0.0, 0.0, 0.0, 0.0, 0.0, 1.7564803906662292E9, 0.0, 2025-08-29 12:13:10.666
44.0, 1764.8887082897127, 1222.0665390710346, 76.08639464853331, -2.660938818473369, 0.0, 0.03200000151991844, 0.9280000440776348, 0.0, 0.0, 0.0, 0.0, 0.0, 1.7564803906819267E9, 0.0, 2025-08-29 12:13:10.681
44.0, 1760.000659047626, 1067.1748425061814, 123.1156365913339, 32.40062326611951, 0.0, 0.03200000151991844, 0.9280000440776348, 0.0, 0.0, 0.0, 0.0, 0.0, 1.7564803906819267E9, 0.0, 2025-08-29 12:13:10.681
45.0, 1654.0436834529974, 1197.4729569624178, 193.76982655422762, 101.30454004975036, 0.0, 0.03200000151991844, 0.9280000440776348, 0.0, 0.0, 0.0, 0.0, 0.0, 1.756480390682632E9, 0.0, 2025-08-29 12:13:10.682
45.0, 1423.267546837218, 968.8323032213375, 115.28054618416354, 37.71876100311056, 0.0, 0.03200000151991844, 0.9280000440776348, 0.0, 0.0, 0.0, 0.0, 0.0, 1.756480390682632E9, 0.0, 2025-08-29 12:13:10.682
46.0, 1373.9943649210036, 1167.1722875214182, 81.47933038463816, 7.0590611663647, 0.0, 0.03200000151991844, 0.9280000440776348, 0.0, 0.0, 0.0, 0.0, 0.0, 1.756480390696232E9, 0.0, 2025-08-29 12:13:10.696
46.0, 1442.2737184120342, 1389.3821832886897, 183.72071537328884, 97.89375129016116, 0.0, 0.03200000151991844, 0.9280000440776348, 0.0, 0.0, 0.0, 0.0, 0.0, 1.756480390696232E9, 0.0, 2025-08-29 12:13:10.696
47.0, 1442.842183205299, 1534.9577890639193, 150.24861076986417, 66.11582136666402, 0.0, 0.03200000151991844, 0.9280000440776348, 0.0, 0.0, 0.0, 0.0, 0.0, 1.7564803907119808E9, 0.0, 2025-08-29 12:13:10.711
47.0, 1584.6947185746394, 1446.2959808143787, 86.40103872632608, 7.795821457635611, 0.0, 0.03200000151991844, 0.9280000440776348, 0.0, 0.0, 0.0, 0.0, 0.0, 1.7564803907119808E9, 0.0, 2025-08-29 12:13:10.711
48.0, 1789.609446996823, 1644.2694549188018, 156.69245839351788, 69.07782213157043, 0.0, 0.03200000151991844, 0.9280000440776348, 0.0, 0.0, 0.0, 0.0, 0.0, 1.7564803907126842E9, 0.0, 2025-08-29 12:13:10.712
48.0, 1839.671747803688, 1445.738735720981, 176.5438473583199, 84.0935204536654, 0.0, 0.03200000151991844, 0.9280000440776348, 0.0, 0.0, 0.0, 0.0, 0.0, 1.7564803907126842E9, 0.0, 2025-08-29 12:13:10.712
49.0, 1784.784976053983, 1246.8770353770815, 83.43529806146398, 1.5389688317663968, 0.0, 0.03200000151991844, 0.9280000440776348, 0.0, 0.0, 0.0, 0.0, 0.0, 1.75648039072623E9, 0.0, 2025-08-29 12:13:10.726
49.0, 1771.2988968137652, 1074.463907519821, 114.2184145967476, 44.56277792202309, 0.0, 0.03200000151991844, 0.9280000440776348, 0.0, 0.0, 0.0, 0.0, 0.0, 1.75648039072623E9, 0.0, 2025-08-29 12:13:10.726
50.0, 1655.3414287376218, 1204.6161658777855, 200.2959519769065, 111.1479567331262, 0.0, 0.03200000151991844, 0.9600000455975533, 0.0, 0.0, 0.0, 0.0, 0.0, 1.7564803907419577E9, 0.0, 2025-08-29 12:13:10.741
50.0, 1415.4810751294717, 974.2401985572651, 111.05445923423395, 28.683162710163742, 0.0, 0.03200000151991844, 0.9600000455975533, 0.0, 0.0, 0.0, 0.0, 0.0, 1.7564803907419577E9, 0.0, 2025-08-29 12:13:10.741
51.0, 1376.7731105880812, 1179.59623517422, 89.96516338409856, 15.817906862590462, 0.0, 0.03200000151991844, 0.9600000455975533, 0.0, 0.0, 0.0, 0.0, 0.0, 1.7564803907426777E9, 0.0, 2025-08-29 12:13:10.742
51.0, 1448.0443840436637, 1390.994080169592, 191.26409358391538, 104.13564431620762, 0.0, 0.03200000151991844, 0.9600000455975533, 0.0, 0.0, 0.0, 0.0, 0.0, 1.7564803907426777E9, 0.0, 2025-08-29 12:13:10.742
52.0, 1445.2525487267412, 1546.936688621994, 151.31822215719149, 71.5685955020599, 0.0, 0.03200000151991844, 0.9600000455975533, 0.0, 0.0, 0.0, 0.0, 0.0, 1.75648039075623E9, 0.0, 2025-08-29 12:13:10.756
52.0, 1578.9558420926332, 1446.617612210568, 82.70601757010445, 0.17016544798389077, 0.0, 0.03200000151991844, 0.9600000455975533, 0.0, 0.0, 0.0, 0.0, 0.0, 1.75648039075623E9, 0.0, 2025-08-29 12:13:10.756
53.0, 1786.1519094877876, 1627.0546954227611, 156.77847609249875, 72.7204846884124, 0.0, 0.03200000151991844, 0.9600000455975533, 0.0, 0.0, 0.0, 0.0, 0.0, 1.75648039077196E9, 0.0, 2025-08-29 12:13:10.771
53.0, 1840.6684311418794, 1446.4044379130937, 185.9571755467914, 97.8451325907372, 0.0, 0.03200000151991844, 0.9600000455975533, 0.0, 0.0, 0.0, 0.0, 0.0, 1.75648039077196E9, 0.0, 2025-08-29 12:13:10.771
54.0, 1785.617103794124, 1244.4423605059274, 92.5419544535689, 19.408210820052773, 0.0, 0.03200000151991844, 0.9600000455975533, 0.0, 0.0, 0.0, 0.0, 0.0, 1.7564803907726889E9, 0.0, 2025-08-29 12:13:10.772
54.0, 1759.8491930994205, 1060.2672472880222, 109.60711795138195, 33.57495185220614, 0.0, 0.03200000151991844, 0.9600000455975533, 0.0, 0.0, 0.0, 0.0, 0.0, 1.7564803907726889E9, 0.0, 2025-08-29 12:13:10.772
55.0, 1645.4176042051986, 1197.435557962861, 195.3293648357503, 106.02055389387533, 0.0, 0.03200000151991844, 0.9600000455975533, 0.0, 0.0, 0.0, 0.0, 0.0, 1.756480390786219E9, 0.0, 2025-08-29 12:13:10.786
55.0, 1424.3839069739915, 977.449032719247, 106.27860699081793, 26.147510540205985, 0.0, 0.03200000151991844, 0.9600000455975533, 0.0, 0.0, 0.0, 0.0, 0.0, 1.756480390786219E9, 0.0, 2025-08-29 12:13:10.786
56.0, 1381.7415676792152, 1173.9489862411283, 83.74196985783055, 4.411211997736245, 0.0, 0.03200000151991844, 0.9600000455975533, 0.0, 0.0, 0.0, 0.0, 0.0, 1.756480390801955E9, 0.0, 2025-08-29 12:13:10.801
56.0, 1438.2140570101328, 1381.3675776836462, 186.85849143611267, 100.23492866242304, 0.0, 0.03200000151991844, 0.9600000455975533, 0.0, 0.0, 0.0, 0.0, 0.0, 1.756480390801955E9, 0.0, 2025-08-29 12:13:10.801
57.0, 1444.2278161388822, 1548.5598052027635, 154.93096551438794, 68.94692563312128, 0.0, 0.03200000151991844, 0.9600000455975533, 0.0, 0.0, 0.0, 0.0, 0.0, 1.7564803908026876E9, 0.0, 2025-08-29 12:13:10.802
57.0, 1581.7383276596665, 1436.2431297334842, 69.87816072208807, -12.915744496975094, 0.0, 0.03200000151991844, 0.9600000455975533, 0.0, 0.0, 0.0, 0.0, 0.0, 1.7564803908026876E9, 0.0, 2025-08-29 12:13:10.802
58.0, 1779.9548952612095, 1617.0878620408475, 158.37915327353403, 67.69405914796516, 0.0, 0.03200000151991844, 0.9600000455975533, 0.0, 0.0, 0.0, 0.0, 0.0, 1.7564803908162231E9, 0.0, 2025-08-29 12:13:10.816
58.0, 1828.5848143850453, 1445.7050766213797, 177.07117325207219, 75.93305875035003, 0.0, 0.03200000151991844, 0.9600000455975533, 0.0, 0.0, 0.0, 0.0, 0.0, 1.7564803908162231E9, 0.0, 2025-08-29 12:13:10.816
59.0, 1797.4090083544143, 1262.031109997537, 79.08205451304093, -2.328087722416967, 0.0, 0.03200000151991844, 0.9600000455975533, 0.0, 0.0, 0.0, 0.0, 0.0, 1.7564803908319807E9, 0.0, 2025-08-29 12:13:10.831
59.0, 1752.2235370897688, 1031.1222069333307, 109.27800675528124, 23.286487074103206, 0.0, 0.03200000151991844, 0.9600000455975533, 0.0, 0.0, 0.0, 0.0, 0.0, 1.7564803908319807E9, 0.0, 2025-08-29 12:13:10.831
60.0, 1636.8756727064028, 1191.9566045277752, 202.61468994943425, 112.01187362289056, 0.0, 0.03200000151991844, 0.9600000455975533, 0.0, 0.0, 0.0, 0.0, 0.0, 1.756480390832686E9, 0.0, 2025-08-29 12:13:10.832
60.0, 1453.6187049276195, 1032.096450871788, 109.89883014792576, 27.61355132283643, 0.0, 0.03200000151991844, 0.9600000455975533, 0.0, 0.0, 0.0, 0.0, 0.0, 1.756480390832686E9, 0.0, 2025-08-29 12:13:10.832
61.0, 1373.652164075058, 1149.1945884344168, 78.2031780234538, -11.307587516028434, 0.0, 0.03200000151991844, 0.9600000455975533, 0.0, 0.0, 0.0, 0.0, 0.0, 1.7564803908463237E9, 0.0, 2025-08-29 12:13:10.846
61.0, 1389.32982468931, 1311.480067211669, 193.5903113563545, 93.03936114767566, 0.0, 0.03200000151991844, 0.9600000455975533, 0.0, 0.0, 0.0, 0.0, 0.0, 1.7564803908463237E9, 0.0, 2025-08-29 12:13:10.846
62.0, 1481.196727200877, 1141.8176357718185, 147.89247379777953, 62.06924961460754, 0.0, 0.03200000151991844, 0.9600000455975533, 0.0, 0.0, 0.0, 0.0, 0.0, 1.7564803908619535E9, 0.0, 2025-08-29 12:13:10.861
62.0, 1628.1579659096897, 1001.1712181381881, 62.48063860973343, -19.89065791433677, 0.0, 0.03200000151991844, 0.9600000455975533, 0.0, 0.0, 0.0, 0.0, 0.0, 1.7564803908619535E9, 0.0, 2025-08-29 12:13:10.861
63.0, 1702.4978272789158, 1003.6900407583453, 156.0940744006075, 63.24731810064986, 0.0, 0.03200000151991844, 0.9600000455975533, 0.0, 0.0, 0.0, 0.0, 0.0, 1.756480390862697E9, 0.0, 2025-08-29 12:13:10.862
63.0, 1835.0473615084775, 987.8347348961979, 195.34806433552876, 99.98435536539182, 0.0, 0.03200000151991844, 0.9600000455975533, 0.0, 0.0, 0.0, 0.0, 0.0, 1.756480390862697E9, 0.0, 2025-08-29 12:13:10.862
64.0, 1862.4982271832414, 867.8101256182417, 48.84496337128803, -12.837206597905606, 0.0, 0.03200000151991844, 0.9600000455975533, 0.0, 0.0, 0.0, 0.0, 0.0, 1.7564803908762307E9, 0.0, 2025-08-29 12:13:10.876
64.0, 1689.1351647372358, 934.7038461756893, 69.4966909266077, -14.763255075085908, 0.0, 0.03200000151991844, 0.9600000455975533, 0.0, 0.0, 0.0, 0.0, 0.0, 1.7564803908762307E9, 0.0, 2025-08-29 12:13:10.876
65.0, 1588.533725879155, 1136.022660790477, 225.11766798282042, 117.8535973536782, 0.0, 0.03200000151991844, 0.9600000455975533, 0.0, 0.0, 0.0, 0.0, 0.0, 1.7564803908920088E9, 0.0, 2025-08-29 12:13:10.892
65.0, 1512.7652227268554, 1137.3765045744367, 124.0057327807881, 34.79041933780536, 0.0, 0.03200000151991844, 0.9600000455975533, 0.0, 0.0, 0.0, 0.0, 0.0, 1.7564803908920088E9, 0.0, 2025-08-29 12:13:10.892
66.0, 1362.8999517024495, 1124.1746577308513, 87.95309720793739, -7.03662176663056, 0.0, 0.03200000151991844, 0.9600000455975533, 0.0, 0.0, 0.0, 0.0, 0.0, 1.756480390892691E9, 0.0, 2025-08-29 12:13:10.892
66.0, 1331.765284571331, 1238.5146190761589, 224.6389607884921, 121.02877241605893, 0.0, 0.03200000151991844, 0.9600000455975533, 0.0, 0.0, 0.0, 0.0, 0.0, 1.756480390892691E9, 0.0, 2025-08-29 12:13:10.892
67.0, 1507.7200976866297, 1195.27576573845, 189.0313733103685, 96.12477861111984, 0.0, 0.03200000151991844, 0.9600000455975533, 0.0, 0.0, 0.0, 0.0, 0.0, 1.756480390906279E9, 0.0, 2025-08-29 12:13:10.906
67.0, 1631.1162267746404, 999.3124878602102, 93.66018454032019, 1.9540977268479764, 0.0, 0.03200000151991844, 0.9600000455975533, 0.0, 0.0, 0.0, 0.0, 0.0, 1.756480390906279E9, 0.0, 2025-08-29 12:13:10.906
68.0, 1653.9614056539722, 947.2231612773612, 203.16819514287636, 88.34204680332914, 0.0, 0.03200000151991844, 0.9600000455975533, 0.0, 0.0, 0.0, 0.0, 0.0, 1.7564803909219637E9, 0.0, 2025-08-29 12:13:10.921
68.0, 1842.3663457217626, 1023.2889864761382, 242.64283917518333, 137.1215619253926, 0.0, 0.03200000151991844, 0.9600000455975533, 0.0, 0.0, 0.0, 0.0, 0.0, 1.7564803909219637E9, 0.0, 2025-08-29 12:13:10.921
69.0, 1879.3015976841561, 903.3055160976946, 104.8836243073456, 12.063047307077795, 0.0, 0.03200000151991844, 0.9600000455975533, 0.0, 0.0, 0.0, 0.0, 0.0, 1.7564803909227269E9, 0.0, 2025-08-29 12:13:10.922
69.0, 1668.1281466861255, 891.3640155391768, 152.92263923818246, 51.915421234909445, 0.0, 0.03200000151991844, 0.9600000455975533, 0.0, 0.0, 0.0, 0.0, 0.0, 1.7564803909227269E9, 0.0, 2025-08-29 12:13:10.922
70.0, 1574.677396543324, 1130.9868855001405, 250.48914928222075, 153.34150803321972, 0.0, 0.03200000151991844, 0.9760000463575125, 0.0, 0.0, 0.0, 0.0, 0.0, 1.7564803909362798E9, 0.0, 2025-08-29 12:13:10.936
70.0, 1536.7267617429607, 1179.657943523489, 139.09996900195256, 48.42983447620645, 0.0, 0.03200000151991844, 0.9760000463575125, 0.0, 0.0, 0.0, 0.0, 0.0, 1.7564803909362798E9, 0.0, 2025-08-29 12:13:10.936
71.0, 1353.0116562196054, 1090.4351502805948, 81.92063857940957, -12.758668698836118, 0.0, 0.03200000151991844, 0.9760000463575125, 0.0, 0.0, 0.0, 0.0, 0.0, 1.7564803909519553E9, 0.0, 2025-08-29 12:13:10.951
71.0, 1297.152510481421, 1201.4166814656928, 218.61772185983136, 103.80279322015122, 0.0, 0.03200000151991844, 0.9760000463575125, 0.0, 0.0, 0.0, 0.0, 0.0, 1.7564803909519553E9, 0.0, 2025-08-29 12:13:10.951
72.0, 1526.894564759452, 1225.5091169802472, 177.15345105109736, 83.82424765685573, 0.0, 0.03200000151991844, 0.9760000463575125, 0.0, 0.0, 0.0, 0.0, 0.0, 1.7564803909527104E9, 0.0, 2025-08-29 12:13:10.952
72.0, 1626.2319174325094, 987.0792751051486, 59.918807140085846, -25.328472449909896, 0.0, 0.03200000151991844, 0.9760000463575125, 0.0, 0.0, 0.0, 0.0, 0.0, 1.7564803909527104E9, 0.0, 2025-08-29 12:13:10.952
73.0, 1616.2089855512604, 888.551610772498, 178.09216593997553, 77.59731423063204, 0.0, 0.03200000151991844, 0.9760000463575125, 0.0, 0.0, 0.0, 0.0, 0.0, 1.7564803909662817E9, 0.0, 2025-08-29 12:13:10.966
73.0, 1839.5296316053718, 1020.3045463114977, 216.50467838486657, 124.95192746957764, 0.0, 0.03200000151991844, 0.9760000463575125, 0.0, 0.0, 0.0, 0.0, 0.0, 1.7564803909662817E9, 0.0, 2025-08-29 12:13:10.966
74.0, 1893.896557261236, 917.3376207314432, 78.82774131605402, -0.08788764895871282, 0.0, 0.03200000151991844, 0.9760000463575125, 0.0, 0.0, 0.0, 0.0, 0.0, 1.756480390981706E9, 0.0, 2025-08-29 12:13:10.981
74.0, 2136.8273687330075, 861.3026996953413, 118.62401674455032, 27.50135432416573, 0.0, 0.03200000151991844, 0.9760000463575125, 0.0, 0.0, 0.0, 0.0, 0.0, 1.756480390981706E9, 0.0, 2025-08-29 12:13:10.981
75.0, 2059.921935994178, 637.7258704942651, 231.66997270518914, 129.29395131813362, 0.0, 0.03200000151991844, 0.9760000463575125, 0.0, 0.0, 0.0, 0.0, 0.0, 1.7564803909969568E9, 0.0, 2025-08-29 12:13:10.996
75.0, 2068.318011394702, 726.855166238267, 110.42989594163373, 28.458768712822348, 0.0, 0.03200000151991844, 0.9760000463575125, 0.0, 0.0, 0.0, 0.0, 0.0, 1.7564803909969568E9, 0.0, 2025-08-29 12:13:10.996
76.0, 1846.0146181285381, 586.7435542983003, 67.00217765616253, -16.30035395687446, 0.0, 0.03200000151991844, 0.9760000463575125, 0.0, 0.0, 0.0, 0.0, 0.0, 1.756480390997718E9, 0.0, 2025-08-29 12:13:10.997
76.0, 1781.576141892001, 691.77116475394, 208.28811818221584, 121.42146191140637, 0.0, 0.03200000151991844, 0.9760000463575125, 0.0, 0.0, 0.0, 0.0, 0.0, 1.756480390997718E9, 0.0, 2025-08-29 12:13:10.997
77.0, 1568.7590048634447, 777.6280480367132, 164.56868770020083, 83.37919956212863, 0.0, 0.03200000151991844, 0.9760000463575125, 0.0, 0.0, 0.0, 0.0, 0.0, 1.7564803910119734E9, 0.0, 2025-08-29 12:13:11.011
77.0, 1633.5247223461047, 998.530848769471, 42.707787544000894, -46.653381997253746, 0.0, 0.03200000151991844, 0.9760000463575125, 0.0, 0.0, 0.0, 0.0, 0.0, 1.7564803910119734E9, 0.0, 2025-08-29 12:13:11.011
78.0, 1620.6258073989302, 885.6868474064395, 171.0274949236773, 76.48656394379213, 0.0, 0.03200000151991844, 0.9760000463575125, 0.0, 0.0, 0.0, 0.0, 0.0, 1.7564803910126839E9, 0.0, 2025-08-29 12:13:11.012
78.0, 1857.305376094766, 1042.2727186512202, 201.39548256387934, 109.12467085709795, 0.0, 0.03200000151991844, 0.9760000463575125, 0.0, 0.0, 0.0, 0.0, 0.0, 1.7564803910126839E9, 0.0, 2025-08-29 12:13:11.012
79.0, 1922.3310166243464, 940.0649927621707, 67.1255943547003, -17.45598304318264, 0.0, 0.03200000151991844, 0.9760000463575125, 0.0, 0.0, 0.0, 0.0, 0.0, 1.7564803910263011E9, 0.0, 2025-08-29 12:13:11.026
79.0, 2114.6983806951903, 828.597274582833, 101.68600984523073, 9.43763753818348, 0.0, 0.03200000151991844, 0.9760000463575125, 0.0, 0.0, 0.0, 0.0, 0.0, 1.7564803910263011E9, 0.0, 2025-08-29 12:13:11.026
80.0, 2053.6950025679544, 632.3890332574956, 218.82715625735, 120.09753732709214, 0.0, 0.03200000151991844, 0.9760000463575125, 0.0, 0.0, 0.0, 0.0, 0.0, 1.7564803910419855E9, 0.0, 2025-08-29 12:13:11.041
80.0, 2076.227899800986, 740.8835309720598, 105.68770279781893, 28.76170060923323, 0.0, 0.03200000151991844, 0.9760000463575125, 0.0, 0.0, 0.0, 0.0, 0.0, 1.7564803910419855E9, 0.0, 2025-08-29 12:13:11.041
81.0, 2318.6052060793154, 575.5163746313192, 53.76667171297595, -24.980661754030734, 0.0, 0.03200000151991844, 0.9760000463575125, 0.0, 0.0, 0.0, 0.0, 0.0, 1.756480391042689E9, 0.0, 2025-08-29 12:13:11.042
81.0, 2255.2251215302385, 679.8221843955107, 206.4480874040164, 112.58033841615543, 0.0, 0.03200000151991844, 0.9760000463575125, 0.0, 0.0, 0.0, 0.0, 0.0, 1.756480391042689E9, 0.0, 2025-08-29 12:13:11.042
82.0, 2059.4694080995396, 791.3123419745825, 165.99358958331868, 87.87829920882359, 0.0, 0.03200000151991844, 0.9760000463575125, 0.0, 0.0, 0.0, 0.0, 0.0, 1.756480391056308E9, 0.0, 2025-08-29 12:13:11.056
82.0, 2127.533717343118, 998.085800674744, 50.80841084802523, -37.412089206743985, 0.0, 0.03200000151991844, 0.9760000463575125, 0.0, 0.0, 0.0, 0.0, 0.0, 1.756480391056308E9, 0.0, 2025-08-29 12:13:11.056
83.0, 2079.532101411838, 851.7696947082877, 160.33138105040416, 63.35577519936487, 0.0, 0.03200000151991844, 0.9760000463575125, 0.0, 0.0, 0.0, 0.0, 0.0, 1.7564803910719836E9, 0.0, 2025-08-29 12:13:11.071
83.0, 1859.1080078734085, 1054.674226904288, 216.3102035871707, 122.83514409465715, 0.0, 0.03200000151991844, 0.9760000463575125, 0.0, 0.0, 0.0, 0.0, 0.0, 1.7564803910719836E9, 0.0, 2025-08-29 12:13:11.071
84.0, 1935.398227069527, 962.8933420917019, 71.35168130462989, -13.87315888563171, 0.0, 0.03200000151991844, 0.9760000463575125, 0.0, 0.0, 0.0, 0.0, 0.0, 1.7564803910726652E9, 0.0, 2025-08-29 12:13:11.072
84.0, 2118.24754575314, 829.9473784668371, 111.28633303148672, 20.844332403037697, 0.0, 0.03200000151991844, 0.9760000463575125, 0.0, 0.0, 0.0, 0.0, 0.0, 1.7564803910726652E9, 0.0, 2025-08-29 12:13:11.072
85.0, 2054.0577728636563, 632.5012302561663, 232.36933399690315, 129.15931491972879, 0.0, 0.03200000151991844, 0.9760000463575125, 0.0, 0.0, 0.0, 0.0, 0.0, 1.7564803910863154E9, 0.0, 2025-08-29 12:13:11.086
85.0, 2081.9873457327485, 767.8893485520966, 106.18884939188138, 22.78908037999645, 0.0, 0.03200000151991844, 0.9760000463575125, 0.0, 0.0, 0.0, 0.0, 0.0, 1.7564803910863154E9, 0.0, 2025-08-29 12:13:11.086
86.0, 2319.9553099633195, 579.7836004807614, 61.942093016114086, -23.368764873128384, 0.0, 0.03200000151991844, 0.9760000463575125, 0.0, 0.0, 0.0, 0.0, 0.0, 1.7564803911019323E9, 0.0, 2025-08-29 12:13:11.101
86.0, 2249.1739634019323, 666.3323652553372, 213.01535172620788, 108.52254696423188, 0.0, 0.03200000151991844, 0.9760000463575125, 0.0, 0.0, 0.0, 0.0, 0.0, 1.7564803911019323E9, 0.0, 2025-08-29 12:13:11.101
87.0, 2061.7619667723775, 805.6810376043431, 163.25598281575367, 77.41779903275892, 0.0, 0.03200000151991844, 0.9760000463575125, 0.0, 0.0, 0.0, 0.0, 0.0, 1.756480391102651E9, 0.0, 2025-08-29 12:13:11.102
87.0, 2144.3071686443873, 1012.4058776050806, 33.87788374861702, -41.52223925804719, 0.0, 0.03200000151991844, 0.9760000463575125, 0.0, 0.0, 0.0, 0.0, 0.0, 1.756480391102651E9, 0.0, 2025-08-29 12:13:11.102
88.0, 2082.6997966743074, 840.8716262374073, 142.5668562608771, 66.50851086201146, 0.0, 0.03200000151991844, 0.9760000463575125, 0.0, 0.0, 0.0, 0.0, 0.0, 1.7564803911163156E9, 0.0, 2025-08-29 12:13:11.116
88.0, 1860.3608743585646, 1054.0982823111117, 214.7095264061354, 117.79375895438716, 0.0, 0.03200000151991844, 0.9760000463575125, 0.0, 0.0, 0.0, 0.0, 0.0, 1.7564803911163156E9, 0.0, 2025-08-29 12:13:11.116
89.0, 1941.9430519919842, 976.9740654248744, 74.58669476630166, -9.759268934372813, 0.0, 0.03200000151991844, 0.9760000463575125, 0.0, 0.0, 0.0, 0.0, 0.0, 1.7564803911319568E9, 0.0, 2025-08-29 12:13:11.131
89.0, 2115.786691582296, 818.0582365076989, 108.2570140673779, 13.398191591259092, 0.0, 0.03200000151991844, 0.9760000463575125, 0.0, 0.0, 0.0, 0.0, 0.0, 1.7564803911319568E9, 0.0, 2025-08-29 12:13:11.131
90.0, 2041.6674843104556, 613.2257858845405, 215.21441290015355, 124.06557118007913, 0.0, 0.03200000151991844, 0.9760000463575125, 0.0, 0.0, 0.0, 0.0, 0.0, 1.7564803911326897E9, 0.0, 2025-08-29 12:13:11.132
90.0, 2095.634240671061, 773.2112261890434, 97.93863008962944, 24.079345864709467, 0.0, 0.03200000151991844, 0.9760000463575125, 0.0, 0.0, 0.0, 0.0, 0.0, 1.7564803911326897E9, 0.0, 2025-08-29 12:13:11.132
91.0, 2318.971716274973, 568.5788602135144, 44.20374752627686, -27.9950211183168, 0.0, 0.03200000151991844, 0.9760000463575125, 0.0, 0.0, 0.0, 0.0, 0.0, 1.7564803911462882E9, 0.0, 2025-08-29 12:13:11.146
91.0, 2236.091793356929, 649.4691563551314, 211.59418974304572, 120.01525952806696, 0.0, 0.03200000151991844, 0.9760000463575125, 0.0, 0.0, 0.0, 0.0, 0.0, 1.7564803911462882E9, 0.0, 2025-08-29 12:13:11.146
92.0, 2063.108330756426, 808.3700256724842, 157.73215058119968, 83.13610606500879, 0.0, 0.03200000151991844, 0.9760000463575125, 0.0, 0.0, 0.0, 0.0, 0.0, 1.75648039116196E9, 0.0, 2025-08-29 12:13:11.161
92.0, 2138.955371807795, 1015.9326032632962, 24.142924163956195, -45.80816460726783, 0.0, 0.03200000151991844, 0.9760000463575125, 0.0, 0.0, 0.0, 0.0, 0.0, 1.75648039116196E9, 0.0, 2025-08-29 12:13:11.161
93.0, 2070.960250713397, 821.5812222659588, 154.45225832005963, 59.0474104504101, 0.0, 0.03200000151991844, 0.9760000463575125, 0.0, 0.0, 0.0, 0.0, 0.0, 1.7564803911627035E9, 0.0, 2025-08-29 12:13:11.162
93.0, 1866.6364264842123, 1057.905500466004, 214.72448600595817, 128.21686013089493, 0.0, 0.03200000151991844, 0.9760000463575125, 0.0, 0.0, 0.0, 0.0, 0.0, 1.7564803911627035E9, 0.0, 2025-08-29 12:13:11.162
94.0, 1945.9671843443066, 977.4527726192027, 48.61308957403526, -19.213736022356898, 0.0, 0.03200000151991844, 0.9760000463575125, 0.0, 0.0, 0.0, 0.0, 0.0, 1.756480391176355E9, 0.0, 2025-08-29 12:13:11.176
94.0, 2104.6866685138084, 803.7568590771407, 89.03766819508746, 14.542600977700204, 0.0, 0.03200000151991844, 0.9760000463575125, 0.0, 0.0, 0.0, 0.0, 0.0, 1.756480391176355E9, 0.0, 2025-08-29 12:13:11.176
95.0, 2029.7409433517605, 611.0267247105949, 211.88216203963384, 126.53390515083447, 0.0, 0.03200000151991844, 0.9760000463575125, 0.0, 0.0, 0.0, 0.0, 0.0, 1.7564803911919343E9, 0.0, 2025-08-29 12:13:11.191
95.0, 2101.5245831012726, 794.8989060320891, 100.30224686162546, 27.658430122304708, 0.0, 0.03200000151991844, 0.9760000463575125, 0.0, 0.0, 0.0, 0.0, 0.0, 1.7564803911919343E9, 0.0, 2025-08-29 12:13:11.191
96.0, 2319.970269563142, 571.6642776769586, 39.6298498804681, -35.11579063395038, 0.0, 0.03200000151991844, 0.9760000463575125, 0.0, 0.0, 0.0, 0.0, 0.0, 1.7564803911926732E9, 0.0, 2025-08-29 12:13:11.192
96.0, 2220.9863374358974, 629.6364668901078, 190.05984579818323, 112.96554811159149, 0.0, 0.03200000151991844, 0.9760000463575125, 0.0, 0.0, 0.0, 0.0, 0.0, 1.7564803911926732E9, 0.0, 2025-08-29 12:13:11.192
97.0, 2071.0032595628873, 825.8203988657333, 159.51982276001945, 85.21923034032807, 0.0, 0.03200000151991844, 0.9760000463575125, 0.0, 0.0, 0.0, 0.0, 0.0, 1.7564803912062824E9, 0.0, 2025-08-29 12:13:11.206
97.0, 2164.367992006708, 1031.299852181226, 26.521500535774976, -41.492320058401674, 0.0, 0.03200000151991844, 0.9760000463575125, 0.0, 0.0, 0.0, 0.0, 0.0, 1.7564803912062824E9, 0.0, 2025-08-29 12:13:11.206
98.0, 2062.033109519165, 806.5243850443512, 149.60160807752982, 66.14200066635385, 0.0, 0.03200000151991844, 0.9760000463575125, 0.0, 0.0, 0.0, 0.0, 0.0, 1.7564803912219481E9, 0.0, 2025-08-29 12:13:11.221
98.0, 1855.6972191138193, 569.7718882993795, 207.66355488961563, 124.51435917476192, 0.0, 0.03200000151991844, 0.9760000463575125, 0.0, 0.0, 0.0, 0.0, 0.0, 1.7564803912219481E9, 0.0, 2025-08-29 12:13:11.221
99.0, 1958.7613820927218, 504.9556821673177, 42.202901049982756, -20.26464790990576, 0.0, 0.03200000151991844, 0.9760000463575125, 0.0, 0.0, 0.0, 0.0, 0.0, 1.7564803912226646E9, 0.0, 2025-08-29 12:13:11.222
99.0, 2098.9085230822675, 293.07165017770603, 87.41829151427373, 10.320253927726299, 0.0, 0.03200000151991844, 0.9760000463575125, 0.0, 0.0, 0.0, 0.0, 0.0, 1.7564803912226646E9, 0.0, 2025-08-29 12:13:11.222
100.0, 2029.916718649678, 116.37820682115853, 224.1228545946069, 139.65721409535035, 0.0, 0.03200000151991844, 0.9760000463575125, 0.0, 0.0, 0.0, 0.0, 0.0, 1.7564803912533307E9, 0.0, 2025-08-29 12:13:11.253
100.0, 2110.526522294618, 315.565278461203, 86.40477862628177, 24.457075760234147, 0.0, 0.03200000151991844, 0.9760000463575125, 0.0, 0.0, 0.0, 0.0, 0.0, 1.7564803912533307E9, 0.0, 2025-08-29 12:13:11.253
0.0, -121.47569046076387, -416.28826406784356, 42.84616384236142, -29.36943435203284, 0.0, 0.03200000151991844, 0.9760000463575125, 0.0, 0.0, 0.0, 0.0, 0.0, 1.756480391254079E9, 0.0, 2025-08-29 12:13:11.254
1.0, -234.4057095227763, -365.8070944659412, 199.4432547870092, 116.16129262372851, 0.0, 0.03200000151991844, 0.9760000463575125, 0.0, 0.0, 0.0, 0.0, 0.0, 1.7564803912548492E9, 0.0, 2025-08-29 12:13:11.254
1.0, -375.06895670620725, -144.33769888989627, 148.40484009170905, 76.86242388933897, 0.0, 0.03200000151991844, 0.9760000463575125, 0.0, 0.0, 0.0, 0.0, 0.0, 1.7564803912548492E9, 0.0, 2025-08-29 12:13:11.254
2.0, -289.2476024730131, 37.26623310847208, 29.072112305555493, -39.276429334655404, 0.0, 0.03200000151991844, 0.9760000463575125, 0.0, 0.0, 0.0, 0.0, 0.0, 1.7564803912555625E9, 0.0, 2025-08-29 12:13:11.255
2.0, -402.738606528379, -197.8949362053536, 152.02880314877257, 51.20297029335052, 0.0, 0.03200000151991844, 0.9760000463575125, 0.0, 0.0, 0.0, 0.0, 0.0, 1.7564803912555625E9, 0.0, 2025-08-29 12:13:11.255
3.0, -598.1614688630216, -402.9031621264294, 209.13333557220176, 118.86524029169232, 0.0, 0.03200000151991844, 0.9760000463575125, 0.0, 0.0, 0.0, 0.0, 0.0, 1.7564803912662663E9, 0.0, 2025-08-29 12:13:11.266
3.0, -486.15146519010887, -459.12507816031575, 43.68016153248027, -26.59442858491093, 0.0, 0.03200000151991844, 0.9760000463575125, 0.0, 0.0, 0.0, 0.0, 0.0, 1.7564803912662663E9, 0.0, 2025-08-29 12:13:11.266
4.0, -358.03558235801756, -701.889464084059, 95.17110412241891, 10.191227379254997, 0.0, 0.03200000151991844, 0.9760000463575125, 0.0, 0.0, 0.0, 0.0, 0.0, 1.7564803912812293E9, 0.0, 2025-08-29 12:13:11.281
4.0, -433.02618631953374, -871.3948197257705, 220.22213894082233, 127.5418081888929, 0.0, 0.03200000151991844, 0.9760000463575125, 0.0, 0.0, 0.0, 0.0, 0.0, 1.7564803912812293E9, 0.0, 2025-08-29 12:13:11.281
5.0, -330.59780633309856, -647.3897719797678, 101.94780284212902, 24.694559407420456, 0.0, 0.03200000151991844, 0.9760000463575125, 0.0, 0.0, 0.0, 0.0, 0.0, 1.756480391296974E9, 0.0, 2025-08-29 12:13:11.296
5.0, -124.9500575195998, -428.7234314205125, 54.357575905974954, -30.62978063710034, 0.0, 0.03200000151991844, 0.9760000463575125, 0.0, 0.0, 0.0, 0.0, 0.0, 1.756480391296974E9, 0.0, 2025-08-29 12:13:11.296
6.0, -256.81145015731454, -389.57789858430624, 209.35772956954315, 115.06176203675568, 0.0, 0.03200000151991844, 0.9760000463575125, 0.0, 0.0, 0.0, 0.0, 0.0, 1.7564803912976997E9, 0.0, 2025-08-29 12:13:11.297
6.0, -364.9300879263319, -612.3057704954408, 176.57376655796543, 91.28347811847925, 0.0, 0.03200000151991844, 0.9760000463575125, 0.0, 0.0, 0.0, 0.0, 0.0, 1.7564803912976997E9, 0.0, 2025-08-29 12:13:11.297
7.0, -286.2444628085941, -441.5363286687061, 23.394944172818214, -46.01946895476431, 0.0, 0.03200000151991844, 0.9760000463575125, 0.0, 0.0, 0.0, 0.0, 0.0, 1.7564803913112311E9, 0.0, 2025-08-29 12:13:11.311
7.0, -418.8201763378456, -218.10161566594616, 155.21145801106468, 64.82368593197316, 0.0, 0.03200000151991844, 0.9760000463575125, 0.0, 0.0, 0.0, 0.0, 0.0, 1.7564803913112311E9, 0.0, 2025-08-29 12:13:11.311
8.0, -591.8148586382158, -391.6348435599357, 208.34795658150688, 122.10399365331978, 0.0, 0.03200000151991844, 0.9760000463575125, 0.0, 0.0, 0.0, 0.0, 0.0, 1.7564803913269615E9, 0.0, 2025-08-29 12:13:11.326
8.0, -477.2093643960543, -450.8748588580638, 38.605117292609066, -22.98542512767017, 0.0, 0.03200000151991844, 0.9760000463575125, 0.0, 0.0, 0.0, 0.0, 0.0, 1.7564803913269615E9, 0.0, 2025-08-29 12:13:11.326
9.0, -365.9043318647891, -233.46886458387598, 88.89555199677125, 17.166140796616673, 0.0, 0.03200000151991844, 0.9760000463575125, 0.0, 0.0, 0.0, 0.0, 0.0, 1.7564803913276846E9, 0.0, 2025-08-29 12:13:11.327
9.0, -430.8570443452336, -380.4076638929546, 223.59926860081032, 134.09411291126162, 0.0, 0.03200000151991844, 0.9760000463575125, 0.0, 0.0, 0.0, 0.0, 0.0, 1.7564803913276846E9, 0.0, 2025-08-29 12:13:11.327
10.0, -305.17770633427426, -604.7923114844598, 106.2561675910838, 42.60494029521942, 0.0, 0.03200000151991844, 0.9760000463575125, 0.0, 0.0, 0.0, 0.0, 0.0, 1.7564803913412561E9, 0.0, 2025-08-29 12:13:11.341
10.0, -132.48221603035927, -452.42691733967513, 35.781492826063186, -41.54280870780349, 0.0, 0.03200000151991844, 0.9760000463575125, 0.0, 0.0, 0.0, 0.0, 0.0, 1.7564803913412561E9, 0.0, 2025-08-29 12:13:11.341
11.0, -245.81240438763052, -380.0748127968982, 203.34397044079378, 112.37651386857033, 0.0, 0.03200000151991844, 0.9760000463575125, 0.0, 0.0, 0.0, 0.0, 0.0, 1.7564803913570108E9, 0.0, 2025-08-29 12:13:11.357
11.0, -342.9207766870968, -585.7150818104856, 165.80659458553419, 81.84397063031793, 0.0, 0.03200000151991844, 0.9760000463575125, 0.0, 0.0, 0.0, 0.0, 0.0, 1.7564803913570108E9, 0.0, 2025-08-29 12:13:11.357
12.0, -279.1236932929605, -444.6965441312641, 23.5482800710015, -47.238676340319216, 0.0, 0.03200000151991844, 0.9760000463575125, 0.0, 0.0, 0.0, 0.0, 0.0, 1.7564803913577156E9, 0.0, 2025-08-29 12:13:11.357
12.0, -426.0082640526816, -227.62714085308835, 151.54635605448857, 62.527387359179556, 0.0, 0.03200000151991844, 0.9760000463575125, 0.0, 0.0, 0.0, 0.0, 0.0, 1.7564803913577156E9, 0.0, 2025-08-29 12:13:11.357
13.0, -584.8960437201895, -358.5778678515926, 212.32721013436094, 129.5837935646996, 0.0, 0.03200000151991844, 0.9760000463575125, 0.0, 0.0, 0.0, 0.0, 0.0, 1.7564803913713388E9, 0.0, 2025-08-29 12:13:11.371
13.0, -473.34230784187093, -431.81632868386805, 35.49352052947506, -31.75175062380731, 0.0, 0.03200000151991844, 0.9760000463575125, 0.0, 0.0, 0.0, 0.0, 0.0, 1.7564803913713388E9, 0.0, 2025-08-29 12:13:11.371
14.0, -384.65245034266263, -258.94132318207994, 87.44821071391925, 3.8745363540947437, 0.0, 0.03200000151991844, 0.9760000463575125, 0.0, 0.0, 0.0, 0.0, 0.0, 1.7564803913869815E9, 0.0, 2025-08-29 12:13:11.386
14.0, -423.86343142809346, -369.6255323207006, 236.22891075117514, 135.21982279792428, 0.0, 0.03200000151991844, 0.9760000463575125, 0.0, 0.0, 0.0, 0.0, 0.0, 1.7564803913869815E9, 0.0, 2025-08-29 12:13:11.386
15.0, -293.0080718784593, -584.0770056298934, 98.86238537868485, 20.670427055098116, 0.0, 0.03200000151991844, 0.9760000463575125, 0.0, 0.0, 0.0, 0.0, 0.0, 1.7564803913877127E9, 0.0, 2025-08-29 12:13:11.387
15.0, -142.19099631533027, -464.97802159097046, 36.7015082151629, -45.08075406588614, 0.0, 0.03200000151991844, 0.9760000463575125, 0.0, 0.0, 0.0, 0.0, 0.0, 1.7564803913877127E9, 0.0, 2025-08-29 12:13:11.387
16.0, -258.73375873453915, -396.57899130135775, 211.03694464964792, 108.06440921965986, 0.0, 0.03200000151991844, 0.9760000463575125, 0.0, 0.0, 0.0, 0.0, 0.0, 1.7564803914012904E9, 0.0, 2025-08-29 12:13:11.401
16.0, -337.9242703462951, -570.1122191953473, 160.2079643518664, 68.76554048527032, 0.0, 0.03200000151991844, 0.9760000463575125, 0.0, 0.0, 0.0, 0.0, 0.0, 1.7564803914012904E9, 0.0, 2025-08-29 12:13:11.401
17.0, -265.682492852211, -442.6096799559891, 17.781354339327663, -62.84901875536889, 0.0, 0.03200000151991844, 0.9760000463575125, 0.0, 0.0, 0.0, 0.0, 0.0, 1.756480391417004E9, 0.0, 2025-08-29 12:13:11.417
17.0, -437.3626003181562, -257.7333354963921, 149.1640397827141, 53.375852167606354, 0.0, 0.03200000151991844, 0.9760000463575125, 0.0, 0.0, 0.0, 0.0, 0.0, 1.756480391417004E9, 0.0, 2025-08-29 12:13:11.417
18.0, -578.0969056007452, -356.21799097955227, 215.1957134003751, 116.85691401548684, 0.0, 0.03200000151991844, 0.9760000463575125, 0.0, 0.0, 0.0, 0.0, 0.0, 1.7564803914177265E9, 0.0, 2025-08-29 12:13:11.417
18.0, -452.84017628477886, -422.26088429708034, 45.123762915376574, -25.902547093108296, 0.0, 0.03200000151991844, 0.9760000463575125, 0.0, 0.0, 0.0, 0.0, 0.0, 1.7564803914177265E9, 0.0, 2025-08-29 12:13:11.417
19.0, -385.0040009384975, -266.86617118818685, 85.14443234121427, 4.181208150461316, 0.0, 0.03200000151991844, 0.9760000463575125, 0.0, 0.0, 0.0, 0.0, 0.0, 1.7564803914313111E9, 0.0, 2025-08-29 12:13:11.431
19.0, -439.5149127426557, -386.8851706162095, 226.6472870646976, 140.88951113075018, 0.0, 0.03200000151991844, 0.9760000463575125, 0.0, 0.0, 0.0, 0.0, 0.0, 1.7564803914313111E9, 0.0, 2025-08-29 12:13:11.431
20.0, -289.40280832117423, -565.9871095442213, 100.64631765754893, 26.426133086904883, 0.0, 0.03200000151991844, 0.9760000463575125, 0.0, 0.0, 0.0, 0.0, 0.0, 1.756480391447008E9, 0.0, 2025-08-29 12:13:11.447
20.0, -137.05237377621233, -464.79102659318596, 43.69886103225872, -18.288110783323646, 0.0, 0.03200000151991844, 0.9760000463575125, 0.0, 0.0, 0.0, 0.0, 0.0, 1.756480391447008E9, 0.0, 2025-08-29 12:13:11.447
21.0, -269.8637010026723, -416.1611074693501, 214.62350870715454, 123.7607693336904, 0.0, 0.03200000151991844, 0.9760000463575125, 0.0, 0.0, 0.0, 0.0, 0.0, 1.7564803914477217E9, 0.0, 2025-08-29 12:13:11.447
21.0, -330.8446397301741, -546.0945816799067, 171.5847400170751, 106.29169664066285, 0.0, 0.03200000151991844, 0.9760000463575125, 0.0, 0.0, 0.0, 0.0, 0.0, 1.7564803914477217E9, 0.0, 2025-08-29 12:13:11.447
22.0, -248.12366256024688, -410.1959670400247, 29.53585990006104, -41.3520738100633, 0.0, 0.03200000151991844, 0.9760000463575125, 0.0, 0.0, 0.0, 0.0, 0.0, 1.7564803914613388E9, 0.0, 2025-08-29 12:13:11.461
22.0, -432.59422787465155, -268.4780680690892, 162.60150032350793, 68.22325499169528, 0.0, 0.03200000151991844, 0.9760000463575125, 0.0, 0.0, 0.0, 0.0, 0.0, 1.7564803914613388E9, 0.0, 2025-08-29 12:13:11.461
23.0, -577.520961007569, -349.8302418552339, 210.28148485859856, 135.79576739110053, 0.0, 0.03200000151991844, 0.9760000463575125, 0.0, 0.0, 0.0, 0.0, 0.0, 1.756480391476961E9, 0.0, 2025-08-29 12:13:11.476
23.0, -440.042238636408, -395.64775621239096, 41.73541355552152, -16.208726407960057, 0.0, 0.03200000151991844, 0.9760000463575125, 0.0, 0.0, 0.0, 0.0, 0.0, 1.756480391476961E9, 0.0, 2025-08-29 12:13:11.476
24.0, -399.60831026546657, -293.602715971414, 81.16517878836021, -3.949334353208542, 0.0, 0.03200000151991844, 0.9760000463575125, 0.0, 0.0, 0.0, 0.0, 0.0, 1.7564803914776936E9, 0.0, 2025-08-29 12:13:11.477
24.0, -448.2251397394575, -392.7717731464654, 239.77433590916917, 145.08941878098994, 0.0, 0.03200000151991844, 0.9760000463575125, 0.0, 0.0, 0.0, 0.0, 0.0, 1.7564803914776936E9, 0.0, 2025-08-29 12:13:11.477
25.0, -289.20459362352267, -574.3644854449667, 93.79108103876933, 1.3613235838711262, 0.0, 0.03200000151991844, 0.9760000463575125, 0.0, 0.0, 0.0, 0.0, 0.0, 1.756480391491344E9, 0.0, 2025-08-29 12:13:11.491
25.0, -140.98674852959812, -475.3749434677884, 18.2488418337889, -53.00560207199305, 0.0, 0.03200000151991844, 0.9760000463575125, 0.0, 0.0, 0.0, 0.0, 0.0, 1.756480391491344E9, 0.0, 2025-08-29 12:13:11.491
26.0, -285.4628237178549, -435.4328119410202, 203.4823467391543, 109.99045769684017, 0.0, 0.03200000151991844, 0.9760000463575125, 0.0, 0.0, 0.0, 0.0, 0.0, 1.756480391506982E9, 0.0, 2025-08-29 12:13:11.506
26.0, -333.4663095991127, -550.1897721313871, 156.49424369586632, 75.66191600356251, 0.0, 0.03200000151991844, 0.9760000463575125, 0.0, 0.0, 0.0, 0.0, 0.0, 1.756480391506982E9, 0.0, 2025-08-29 12:13:11.506
27.0, -263.00098458398134, -426.54680964630097, 19.247395121958107, -49.650911811739206, 0.0, 0.03200000151991844, 0.9760000463575125, 0.0, 0.0, 0.0, 0.0, 0.0, 1.7564803915077133E9, 0.0, 2025-08-29 12:13:11.507
27.0, -454.5212613148615, -285.3113577696495, 147.4586454029195, 58.69772980455309, 0.0, 0.03200000151991844, 0.9760000463575125, 0.0, 0.0, 0.0, 0.0, 0.0, 1.7564803915077133E9, 0.0, 2025-08-29 12:13:11.507
28.0, -574.7571749403141, -351.14668663963675, 215.76043829368427, 138.79890705551952, 0.0, 0.03200000151991844, 0.9760000463575125, 0.0, 0.0, 0.0, 0.0, 0.0, 1.7564803915212908E9, 0.0, 2025-08-29 12:13:11.521
28.0, -430.4456553501077, -386.12223102524877, 45.29205841338262, -23.35193532332778, 0.0, 0.03200000151991844, 0.9760000463575125, 0.0, 0.0, 0.0, 0.0, 0.0, 1.7564803915212908E9, 0.0, 2025-08-29 12:13:11.521
29.0, -394.43228872679174, -295.20713305240497, 77.69455162947997, -9.439507488161325, 0.0, 0.03200000151991844, 0.9760000463575125, 0.0, 0.0, 0.0, 0.0, 0.0, 1.7564803915369806E9, 0.0, 2025-08-29 12:13:11.536
29.0, -441.6429158174433, -382.75258116517216, 238.25593652715907, 147.74848764948547, 0.0, 0.03200000151991844, 0.9760000463575125, 0.0, 0.0, 0.0, 0.0, 0.0, 1.7564803915369806E9, 0.0, 2025-08-29 12:13:11.536
30.0, -267.5243935803883, -540.8213227423839, 99.35605217283592, 28.023070367984474, 0.0, 0.03200000151991844, 0.9760000463575125, 0.0, 0.0, 0.0, 0.0, 0.0, 1.756480391537687E9, 0.0, 2025-08-29 12:13:11.537
30.0, -137.07481317594647, -461.9300031270832, 25.440669448580593, -48.42048472631723, 0.0, 0.03200000151991844, 0.9760000463575125, 0.0, 0.0, 0.0, 0.0, 0.0, 1.756480391537687E9, 0.0, 2025-08-29 12:13:11.537
31.0, -281.44617116544396, -436.22193083167076, 213.5239781201817, 117.55627530720085, 0.0, 0.03200000151991844, 0.9760000463575125, 0.0, 0.0, 0.0, 0.0, 0.0, 1.7564803915512805E9, 0.0, 2025-08-29 12:13:11.551
31.0, -322.7552361260168, -537.9079406769015, 156.2773294984363, 73.4404154298827, 0.0, 0.03200000151991844, 0.9760000463575125, 0.0, 0.0, 0.0, 0.0, 0.0, 1.7564803915512805E9, 0.0, 2025-08-29 12:13:11.551
32.0, -258.7898572338745, -415.0092182829976, 7.85565985692665, -58.70520960446447, 0.0, 0.03200000151991844, 0.9760000463575125, 0.0, 0.0, 0.0, 0.0, 0.0, 1.756480391567036E9, 0.0, 2025-08-29 12:13:11.567
32.0, -451.85845254641026, -277.16959556611255, 136.29504403518513, 42.94901109114289, 0.0, 0.03200000151991844, 0.9760000463575125, 0.0, 0.0, 0.0, 0.0, 0.0, 1.756480391567036E9, 0.0, 2025-08-29 12:13:11.567
33.0, -572.3187601692043, -363.04704829864204, 202.10232365550473, 121.19519796408713, 0.0, 0.03200000151991844, 0.9760000463575125, 0.0, 0.0, 0.0, 0.0, 0.0, 1.7564803915677166E9, 0.0, 2025-08-29 12:13:11.567
33.0, -423.2201686357148, -377.30728682968765, 37.93567520054057, -28.666333160363138, 0.0, 0.03200000151991844, 0.9760000463575125, 0.0, 0.0, 0.0, 0.0, 0.0, 1.7564803915677166E9, 0.0, 2025-08-29 12:13:11.567
34.0, -399.9673406612128, -287.2374062468298, 73.70781827671453, -2.382316271774471, 0.0, 0.03200000151991844, 0.9760000463575125, 0.0, 0.0, 0.0, 0.0, 0.0, 1.756480391581319E9, 0.0, 2025-08-29 12:13:11.581
34.0, -458.3153898199089, -423.6745664803311, 222.8699881094508, 129.99892245978117, 0.0, 0.03200000151991844, 0.9760000463575125, 0.0, 0.0, 0.0, 0.0, 0.0, 1.756480391581319E9, 0.0, 2025-08-29 12:13:11.581
35.0, -245.68337783915922, -533.2368056322448, 108.7731202612631, 37.70941125322133, 0.0, 0.03200000151991844, 0.9760000463575125, 0.0, 0.0, 0.0, 0.0, 0.0, 1.7564803915970664E9, 0.0, 2025-08-29 12:13:11.597
35.0, -142.15733721572906, -466.081292077899, 25.291073450352997, -40.77986911684275, 0.0, 0.03200000151991844, 0.9760000463575125, 0.0, 0.0, 0.0, 0.0, 0.0, 1.7564803915970664E9, 0.0, 2025-08-29 12:13:11.597
36.0, -310.0676255263388, -474.9224155731499, 207.454120492097, 121.65520565863699, 0.0, 0.03200000151991844, 0.9760000463575125, 0.0, 0.0, 0.0, 0.0, 0.0, 1.7564803915977044E9, 0.0, 2025-08-29 12:13:11.597
36.0, -316.56196179939434, -544.4191064997576, 171.71563651552424, 87.17706796713173, 0.0, 0.03200000151991844, 0.9760000463575125, 0.0, 0.0, 0.0, 0.0, 0.0, 1.7564803915977044E9, 0.0, 2025-08-29 12:13:11.597
37.0, -262.2043858934194, -413.9807457951829, 14.853012674022466, -55.320600144565105, 0.0, 0.03200000151991844, 0.9760000463575125, 0.0, 0.0, 0.0, 0.0, 0.0, 1.7564803916276646E9, 0.0, 2025-08-29 12:13:11.627
37.0, -478.17238863464445, -316.6891183978878, 146.14968041842803, 57.1755905225873, 0.0, 0.03200000151991844, 0.9760000463575125, 0.0, 0.0, 0.0, 0.0, 0.0, 1.7564803916276646E9, 0.0, 2025-08-29 12:13:11.627
38.0, -582.2668940513395, -375.7664480479434, 220.17352024139836, 138.68297015689313, 0.0, 0.03200000151991844, 0.9760000463575125, 0.0, 0.0, 0.0, 0.0, 0.0, 1.7564803916284215E9, 0.0, 2025-08-29 12:13:11.628
38.0, -424.7086488180794, -377.22874893061817, 43.466987235005945, -23.624948020093143, 0.0, 0.03200000151991844, 0.9760000463575125, 0.0, 0.0, 0.0, 0.0, 0.0, 1.7564803916284215E9, 0.0, 2025-08-29 12:13:11.628
39.0, -405.83524369169027, -296.3515424388461, 82.7621160694398, 9.375929188914597, 0.0, 0.03200000151991844, 0.9760000463575125, 0.0, 0.0, 0.0, 0.0, 0.0, 1.7564803916291814E9, 0.0, 2025-08-29 12:13:11.629
39.0, -440.6443625292741, -416.5350974649191, 232.61616739397869, 142.845478807576, 0.0, 0.03200000151991844, 0.9760000463575125, 0.0, 0.0, 0.0, 0.0, 0.0, 1.7564803916291814E9, 0.0, 2025-08-29 12:13:11.629
40.0, -237.7996687325649, -528.1655012923293, 103.17075012763962, 29.620007649064064, 0.0, 0.03200000151991844, 0.9760000463575125, 0.0, 0.0, 0.0, 0.0, 0.0, 1.7564803916412838E9, 0.0, 2025-08-29 12:13:11.641
40.0, -127.97563658375293, -450.97209625691175, 33.784386249724776, -46.18402455281466, 0.0, 0.03200000151991844, 0.9760000463575125, 0.0, 0.0, 0.0, 0.0, 0.0, 1.7564803916412838E9, 0.0, 2025-08-29 12:13:11.641
41.0, -289.5168752698228, -465.3033928871155, 198.61299699684605, 106.4562522387132, 0.0, 0.03200000151991844, 0.9760000463575125, 0.0, 0.0, 0.0, 0.0, 0.0, 1.7564803916569788E9, 0.0, 2025-08-29 12:13:11.656
41.0, -297.7240857225843, -530.484239264857, 170.75074232695624, 95.26273167133331, 0.0, 0.03200000151991844, 0.9760000463575125, 0.0, 0.0, 0.0, 0.0, 0.0, 1.7564803916569788E9, 0.0, 2025-08-29 12:13:11.656
42.0, -253.06033050175756, -403.6735815173015, 8.910311644431204, -60.3619852848351, 0.0, 0.03200000151991844, 0.9760000463575125, 0.0, 0.0, 0.0, 0.0, 0.0, 1.7564803916576872E9, 0.0, 2025-08-29 12:13:11.657
42.0, -475.21412776969373, -315.18193871574476, 139.48517869738862, 53.54040776565671, 0.0, 0.03200000151991844, 0.9760000463575125, 0.0, 0.0, 0.0, 0.0, 0.0, 1.7564803916576872E9, 0.0, 2025-08-29 12:13:11.657
43.0, -561.9891564915888, -365.93425106443465, 220.6746668354608, 138.6231317576021, 0.0, 0.03200000151991844, 0.9760000463575125, 0.0, 0.0, 0.0, 0.0, 0.0, 1.7564803916712608E9, 0.0, 2025-08-29 12:13:11.671
43.0, -416.08069962030277, -358.1702187564224, 39.19228158565238, -26.474751786328852, 0.0, 0.03200000151991844, 0.9760000463575125, 0.0, 0.0, 0.0, 0.0, 0.0, 1.7564803916712608E9, 0.0, 2025-08-29 12:13:11.671
44.0, -407.91462806705385, -285.606809866149, 79.33262781007215, 6.716860320419073, 0.0, 0.03200000151991844, 0.9760000463575125, 0.0, 0.0, 0.0, 0.0, 0.0, 1.7564803916870315E9, 0.0, 2025-08-29 12:13:11.687
44.0, -442.6414691056125, -421.29973000846803, 241.17679839255288, 152.8833702886477, 0.0, 0.03200000151991844, 0.9760000463575125, 0.0, 0.0, 0.0, 0.0, 0.0, 1.7564803916870315E9, 0.0, 2025-08-29 12:13:11.687
45.0, -257.1386914034374, -536.6363746919669, 103.83645231975242, 35.48791067954153, 0.0, 0.03200000151991844, 0.9760000463575125, 0.0, 0.0, 0.0, 0.0, 0.0, 1.756480391687739E9, 0.0, 2025-08-29 12:13:11.687
45.0, -143.09979200456291, -446.1102263145149, 35.070911834482104, -38.92487873882055, 0.0, 0.03200000151991844, 0.9760000463575125, 0.0, 0.0, 0.0, 0.0, 0.0, 1.756480391687739E9, 0.0, 2025-08-29 12:13:11.687
46.0, -308.6950822426006, -471.605124312453, 209.5297649675049, 109.11906100716442, 0.0, 0.03200000151991844, 0.9760000463575125, 0.0, 0.0, 0.0, 0.0, 0.0, 1.7564803917012844E9, 0.0, 2025-08-29 12:13:11.701
46.0, -307.09440506156534, -532.2382523440756, 182.83061918383464, 101.39616759866476, 0.0, 0.03200000151991844, 0.9760000463575125, 0.0, 0.0, 0.0, 0.0, 0.0, 1.7564803917012844E9, 0.0, 2025-08-29 12:13:11.701
47.0, -282.7906651995145, -397.0389989959076, 23.058353176806122, -48.39804532658309, 0.0, 0.03200000151991844, 0.9760000463575125, 0.0, 0.0, 0.0, 0.0, 0.0, 1.7564803917169795E9, 0.0, 2025-08-29 12:13:11.716
47.0, -516.3997760317288, -325.6125196921639, 145.14364733034745, 58.43967670761049, 0.0, 0.03200000151991844, 0.9760000463575125, 0.0, 0.0, 0.0, 0.0, 0.0, 1.7564803917169795E9, 0.0, 2025-08-29 12:13:11.716
48.0, -581.367448111996, -381.3949974812567, 236.905832643155, 145.1380374804139, 0.0, 0.03200000151991844, 0.9760000463575125, 0.0, 0.0, 0.0, 0.0, 0.0, 1.756480391717705E9, 0.0, 2025-08-29 12:13:11.717
48.0, -420.74248491507024, -349.0598224643618, 45.25839931378141, -27.140453978441656, 0.0, 0.03200000151991844, 0.9760000463575125, 0.0, 0.0, 0.0, 0.0, 0.0, 1.756480391717705E9, 0.0, 2025-08-29 12:13:11.717
49.0, -416.60054571414366, -288.4079949329607, 92.47463625436649, 18.310550183057785, 0.0, 0.03200000151991844, 0.9760000463575125, 0.0, 0.0, 0.0, 0.0, 0.0, 1.7564803917312903E9, 0.0, 2025-08-29 12:13:11.731
49.0, -451.19275035429746, -426.172819650732, 246.28924163198099, 156.45871464628726, 0.0, 0.03200000151991844, 0.9760000463575125, 0.0, 0.0, 0.0, 0.0, 0.0, 1.7564803917312903E9, 0.0, 2025-08-29 12:13:11.731
50.0, -249.88141553942114, -523.2400530506857, 111.22275473223999, 26.97963828034699, 0.0, 0.03200000151991844, 0.9760000463575125, 0.0, 0.0, 0.0, 0.0, 0.0, 1.7564803917469804E9, 0.0, 2025-08-29 12:13:11.746
50.0, -138.2360521121882, -433.7685564607382, 33.13738355739042, -43.86902648024261, 0.0, 0.03200000151991844, 0.9760000463575125, 0.0, 0.0, 0.0, 0.0, 0.0, 1.7564803917469804E9, 0.0, 2025-08-29 12:13:11.746
51.0, -317.4557978888042, -484.8705494552851, 208.4900727798231, 112.24935727007687, 0.0, 0.03200000151991844, 0.9760000463575125, 0.0, 0.0, 0.0, 0.0, 0.0, 1.7564803917477512E9, 0.0, 2025-08-29 12:13:11.747
51.0, -313.65979943377897, -534.3138968194835, 177.5872794459574, 95.51330496836454, 0.0, 0.03200000151991844, 0.9760000463575125, 0.0, 0.0, 0.0, 0.0, 0.0, 1.7564803917477512E9, 0.0, 2025-08-29 12:13:11.747
52.0, -257.0433239545673, -378.00664812140167, 13.416891091037542, -59.90571749024093, 0.0, 0.03200000151991844, 0.9760000463575125, 0.0, 0.0, 0.0, 0.0, 0.0, 1.7564803917612617E9, 0.0, 2025-08-29 12:13:11.761
52.0, -492.7505186619237, -307.8666944024153, 154.36250072112307, 67.2172219036147, 0.0, 0.03200000151991844, 0.9760000463575125, 0.0, 0.0, 0.0, 0.0, 0.0, 1.7564803917612617E9, 0.0, 2025-08-29 12:13:11.761
53.0, -578.2091025994159, -385.3368520345539, 231.056629112456, 127.54554808884859, 0.0, 0.03200000151991844, 0.9760000463575125, 0.0, 0.0, 0.0, 0.0, 0.0, 1.7564803917770197E9, 0.0, 2025-08-29 12:13:11.777
53.0, -406.45793703431264, -344.84495521429926, 41.60825695702806, -28.056729467585683, 0.0, 0.03200000151991844, 0.9760000463575125, 0.0, 0.0, 0.0, 0.0, 0.0, 1.7564803917770197E9, 0.0, 2025-08-29 12:13:11.777
54.0, -414.64457803731784, -277.3790299636312, 76.25843004649505, 3.657622156664729, 0.0, 0.03200000151991844, 0.9760000463575125, 0.0, 0.0, 0.0, 0.0, 0.0, 1.7564803917777507E9, 0.0, 2025-08-29 12:13:11.777
54.0, -468.09709815401584, -447.2172367013991, 235.1705190637149, 145.3998304773122, 0.0, 0.03200000151991844, 0.9760000463575125, 0.0, 0.0, 0.0, 0.0, 0.0, 1.7564803917777507E9, 0.0, 2025-08-29 12:13:11.777
55.0, -241.43672143947333, -515.7565132393502, 109.01247385842726, 28.378360863775015, 0.0, 0.03200000151991844, 0.9760000463575125, 0.0, 0.0, 0.0, 0.0, 0.0, 1.7564803918076496E9, 0.0, 2025-08-29 12:13:11.807
55.0, -139.39542109845206, -426.99933754093945, 35.18684873310849, -43.12478638906032, 0.0, 0.03200000151991844, 0.9760000463575125, 0.0, 0.0, 0.0, 0.0, 0.0, 1.7564803918076496E9, 0.0, 2025-08-29 12:13:11.807
56.0, -325.45544389402494, -497.0514036109671, 212.1963136359118, 115.11038073617965, 0.0, 0.03200000151991844, 0.9760000463575125, 0.0, 0.0, 0.0, 0.0, 0.0, 1.756480391808384E9, 0.0, 2025-08-29 12:13:11.808
56.0, -302.61961476458237, -539.4113804590888, 189.10243140952662, 100.62948810774833, 0.0, 0.03200000151991844, 0.9760000463575125, 0.0, 0.0, 0.0, 0.0, 0.0, 1.756480391808384E9, 0.0, 2025-08-29 12:13:11.808
57.0, -238.5607383735478, -359.85691363643855, 26.278407038655132, -48.03527503088117, 0.0, 0.03200000151991844, 0.9760000463575125, 0.0, 0.0, 0.0, 0.0, 0.0, 1.7564803918091147E9, 0.0, 2025-08-29 12:13:11.809
57.0, -6.146525577176362, -324.8794993008487, 150.2336511700414, 55.86288563814014, 0.0, 0.03200000151991844, 0.9760000463575125, 0.0, 0.0, 0.0, 0.0, 0.0, 1.7564803918091147E9, 0.0, 2025-08-29 12:13:11.809
58.0, -82.0758444275707, -389.4395222859457, 237.39949943730608, 143.78045379649848, 0.0, 0.03200000151991844, 0.9760000463575125, 0.0, 0.0, 0.0, 0.0, 0.0, 1.756480391821308E9, 0.0, 2025-08-29 12:13:11.821
58.0, 90.87208912335336, -330.83528998028487, 43.893335829954594, -25.135867602191865, 0.0, 0.03200000151991844, 0.9760000463575125, 0.0, 0.0, 0.0, 0.0, 0.0, 1.756480391821308E9, 0.0, 2025-08-29 12:13:11.821
59.0, 62.84901875536889, -289.9675332144834, 70.25963051756844, -6.335390524938703, 0.0, 0.03200000151991844, 0.9760000463575125, 0.0, 0.0, 0.0, 0.0, 0.0, 1.7564803918369284E9, 0.0, 2025-08-29 12:13:11.836
59.0, 8.61859944788739, -464.6227310951799, 238.37561332574114, 140.9942283295095, 0.0, 0.03200000151991844, 0.9760000463575125, 0.0, 0.0, 0.0, 0.0, 0.0, 1.7564803918369284E9, 0.0, 2025-08-29 12:13:11.836
60.0, 245.7993147377856, -515.251626745332, 113.43677550600842, 24.234551712870598, 0.0, 0.03200000151991844, 0.9760000463575125, 0.0, 0.0, 0.0, 0.0, 0.0, 1.7564803918376648E9, 0.0, 2025-08-29 12:13:11.837
60.0, 361.07986092194915, -412.55210401210934, 34.32293184334412, -48.58504032436758, 0.0, 0.03200000151991844, 0.9760000463575125, 0.0, 0.0, 0.0, 0.0, 0.0, 1.7564803918376648E9, 0.0, 2025-08-29 12:13:11.837
61.0, 151.372450706549, -516.8766132760793, 210.03839136147872, 108.43839921522886, 0.0, 0.03200000151991844, 0.9760000463575125, 0.0, 0.0, 0.0, 0.0, 0.0, 1.7564803918513117E9, 0.0, 2025-08-29 12:13:11.851
61.0, 193.48746410757303, -538.8803146653809, 193.05924556264654, 98.29953043535352, 0.0, 0.03200000151991844, 0.9760000463575125, 0.0, 0.0, 0.0, 0.0, 0.0, 1.7564803918513117E9, 0.0, 2025-08-29 12:13:11.851
62.0, 268.82961866492406, -338.43476669024676, 35.28782603191212, -40.15530582424253, 0.0, 0.03200000151991844, 0.9760000463575125, 0.0, 0.0, 0.0, 0.0, 0.0, 1.756480391866963E9, 0.0, 2025-08-29 12:13:11.866
62.0, 483.3783293729648, -329.5768136451952, 148.46841839095578, 68.03625999391079, 0.0, 0.03200000151991844, 0.9760000463575125, 0.0, 0.0, 0.0, 0.0, 0.0, 1.756480391866963E9, 0.0, 2025-08-29 12:13:11.866
63.0, 404.97693665185943, -406.272811986506, 232.56754869455472, 135.6199920931831, 0.0, 0.03200000151991844, 0.9760000463575125, 0.0, 0.0, 0.0, 0.0, 0.0, 1.75648039186772E9, 0.0, 2025-08-29 12:13:11.867
63.0, 591.6278636404313, -316.50773325003684, 51.6349287382327, -24.743178106844425, 0.0, 0.03200000151991844, 0.9760000463575125, 0.0, 0.0, 0.0, 0.0, 0.0, 1.75648039186772E9, 0.0, 2025-08-29 12:13:11.867
64.0, 560.3735197107308, -282.50643280288205, 78.8726201155223, -5.168541738763452, 0.0, 0.03200000151991844, 0.9760000463575125, 0.0, 0.0, 0.0, 0.0, 0.0, 1.7564803918813732E9, 0.0, 2025-08-29 12:13:11.881
64.0, 492.88889496028423, -475.17672877013683, 236.88339324342087, 145.83365887217224, 0.0, 0.03200000151991844, 0.9760000463575125, 0.0, 0.0, 0.0, 0.0, 0.0, 1.7564803918813732E9, 0.0, 2025-08-29 12:13:11.881
65.0, 263.01033433387056, -503.1119114891626, 117.2215542611666, 37.09606766048819, 0.0, 0.03200000151991844, 0.9760000463575125, 0.0, 0.0, 0.0, 0.0, 0.0, 1.75648039189696E9, 0.0, 2025-08-29 12:13:11.896
65.0, 362.33646730706096, -402.3309574332088, 21.640931093599647, -50.58214690070599, 0.0, 0.03200000151991844, 0.9760000463575125, 0.0, 0.0, 0.0, 0.0, 0.0, 1.75648039189696E9, 0.0, 2025-08-29 12:13:11.896
66.0, 159.76478620711714, -508.44687877595425, 214.8292032047175, 125.8738128086552, 0.0, 0.03200000151991844, 0.9760000463575125, 0.0, 0.0, 0.0, 0.0, 0.0, 1.7564803918976812E9, 0.0, 2025-08-29 12:13:11.897
66.0, 190.00561724882573, -543.9403993054293, 179.18421672703698, 102.60041538439691, 0.0, 0.03200000151991844, 0.9760000463575125, 0.0, 0.0, 0.0, 0.0, 0.0, 1.7564803918976812E9, 0.0, 2025-08-29 12:13:11.897
67.0, 272.05341242672876, -326.46334693208337, 15.372858767863363, -50.537268101237714, 0.0, 0.03200000151991844, 0.9760000463575125, 0.0, 0.0, 0.0, 0.0, 0.0, 1.7564803919112823E9, 0.0, 2025-08-29 12:13:11.911
67.0, 493.50597845297307, -316.89107299549505, 142.9745053560473, 58.162924110889435, 0.0, 0.03200000151991844, 0.9760000463575125, 0.0, 0.0, 0.0, 0.0, 0.0, 1.7564803919112823E9, 0.0, 2025-08-29 12:13:11.911
68.0, 395.06994166923687, -419.8972675250843, 220.599868836347, 134.31102710869163, 0.0, 0.03200000151991844, 0.9760000463575125, 0.0, 0.0, 0.0, 0.0, 0.0, 1.75648039192699E9, 0.0, 2025-08-29 12:13:11.926
68.0, 606.3855088655837, -294.24036891385913, 52.83169672405347, -15.804817212745547, 0.0, 0.03200000151991844, 0.9760000463575125, 0.0, 0.0, 0.0, 0.0, 0.0, 1.75648039192699E9, 0.0, 2025-08-29 12:13:11.926
69.0, 577.1544508119114, -263.4853016282432, 65.63337427238002, -5.153582138940692, 0.0, 0.03200000151991844, 0.9760000463575125, 0.0, 0.0, 0.0, 0.0, 0.0, 1.756480391927724E9, 0.0, 2025-08-29 12:13:11.927
69.0, 501.5766825573519, -475.09819087106735, 240.0959673053585, 144.0721659930423, 0.0, 0.03200000151991844, 0.9760000463575125, 0.0, 0.0, 0.0, 0.0, 0.0, 1.756480391927724E9, 0.0, 2025-08-29 12:13:11.927
70.0, 265.9311961992644, -499.31591303413734, 108.85165816033259, 36.456544768065214, 0.0, 0.03200000151991844, 0.9760000463575125, 0.0, 0.0, 0.0, 0.0, 0.0, 1.7564803919412825E9, 0.0, 2025-08-29 12:13:11.941
70.0, 382.75632106512785, -380.30294669419527, 26.454182336572558, -48.525201925076544, 0.0, 0.03200000151991844, 0.9760000463575125, 0.0, 0.0, 0.0, 0.0, 0.0, 1.7564803919412825E9, 0.0, 2025-08-29 12:13:11.941
71.0, 158.98688701633364, -520.1228464376181, 208.14600198389962, 103.7523045707494, 0.0, 0.03200000151991844, 0.9760000463575125, 0.0, 0.0, 0.0, 0.0, 0.0, 1.7564803919570308E9, 0.0, 2025-08-29 12:13:11.957
71.0, 196.59158107079566, -532.0662169461139, 199.8135048826225, 111.11990748345852, 0.0, 0.03200000151991844, 0.9760000463575125, 0.0, 0.0, 0.0, 0.0, 0.0, 1.7564803919570308E9, 0.0, 2025-08-29 12:13:11.957
72.0, 288.4229545327835, -310.64731001947075, 28.567225811537355, -42.496483196504414, 0.0, 0.03200000151991844, 0.9760000463575125, 0.0, 0.0, 0.0, 0.0, 0.0, 1.7564803919576995E9, 0.0, 2025-08-29 12:13:11.957
72.0, 479.1223232233897, -333.9020079439506, 128.87508252309635, 35.39067328069359, 0.0, 0.03200000151991844, 0.9760000463575125, 0.0, 0.0, 0.0, 0.0, 0.0, 1.7564803919576995E9, 0.0, 2025-08-29 12:13:11.957
73.0, 377.6457477756776, -435.32248489232734, 195.2620466365479, 115.29363583400846, 0.0, 0.03200000151991844, 0.9760000463575125, 0.0, 0.0, 0.0, 0.0, 0.0, 1.7564803919712992E9, 0.0, 2025-08-29 12:13:11.971
73.0, 599.6200298457406, -302.9674254604615, 51.881762135308236, -22.308503235690296, 0.0, 0.03200000151991844, 0.9760000463575125, 0.0, 0.0, 0.0, 0.0, 0.0, 1.7564803919712992E9, 0.0, 2025-08-29 12:13:11.971
74.0, 586.855751296971, -256.8937279563397, 83.14358586492017, -0.23187379725277424, 0.0, 0.03200000151991844, 0.9760000463575125, 0.0, 0.0, 0.0, 0.0, 0.0, 1.7564803919869847E9, 0.0, 2025-08-29 12:13:11.986
74.0, 488.4571135127917, -490.38877183990553, 248.27138860849664, 152.04563269857317, 0.0, 0.03200000151991844, 0.9760000463575125, 0.0, 0.0, 0.0, 0.0, 0.0, 1.7564803919869847E9, 0.0, 2025-08-29 12:13:11.986
75.0, 267.8946436760016, -497.3206764077768, 139.3804614986293, 57.66925731673837, 0.0, 0.03200000151991844, 0.9760000463575125, 0.0, 0.0, 0.0, 0.0, 0.0, 1.7564803919876904E9, 0.0, 2025-08-29 12:13:11.987
75.0, 395.1129505187273, -367.5180986956693, 34.214474744629115, -36.74077716469765, 0.0, 0.03200000151991844, 0.9760000463575125, 0.0, 0.0, 0.0, 0.0, 0.0, 1.7564803919876904E9, 0.0, 2025-08-29 12:13:11.987
76.0, 157.3375911358744, -522.862323155161, 222.27908391645178, 126.96586359571666, 0.0, 0.03200000151991844, 0.9760000463575125, 0.0, 0.0, 0.0, 0.0, 0.0, 1.7564803920013084E9, 0.0, 2025-08-29 12:13:12.001
76.0, 190.2374910460785, -545.8122192332521, 210.40490155713633, 133.63036531675607, 0.0, 0.03200000151991844, 0.9760000463575125, 0.0, 0.0, 0.0, 0.0, 0.0, 1.7564803920013084E9, 0.0, 2025-08-29 12:13:12.001
77.0, 302.43635966675356, -786.5159202814102, 50.4119814527221, -21.923293540254235, 0.0, 0.03200000151991844, 0.9760000463575125, 0.0, 0.0, 0.0, 0.0, 0.0, 1.7564803920169463E9, 0.0, 2025-08-29 12:13:12.016
77.0, 500.77634396683425, -802.7508259890601, 174.61405898118392, 86.96015376970172, 0.0, 0.03200000151991844, 0.9760000463575125, 0.0, 0.0, 0.0, 0.0, 0.0, 1.7564803920169463E9, 0.0, 2025-08-29 12:13:12.016
78.0, 395.1671790680848, -910.1551428665407, 271.65324313146994, 166.10765653196722, 0.0, 0.03200000151991844, 0.9760000463575125, 0.0, 0.0, 0.0, 0.0, 0.0, 1.7564803920176628E9, 0.0, 2025-08-29 12:13:12.017
78.0, 628.1105877081864, -761.1276094322093, 104.06458621704951, 22.271104236133397, 0.0, 0.03200000151991844, 0.9760000463575125, 0.0, 0.0, 0.0, 0.0, 0.0, 1.7564803920176628E9, 0.0, 2025-08-29 12:13:12.017
79.0, 572.0794065720402, -752.9690176788718, 97.5833395938389, 18.213312784209847, 0.0, 0.03200000151991844, 0.9760000463575125, 0.0, 0.0, 0.0, 0.0, 0.0, 1.756480392031324E9, 0.0, 2025-08-29 12:13:12.031
79.0, 490.0054320944473, -984.7736267824657, 267.64781027892604, 167.76443221233785, 0.0, 0.03200000151991844, 0.9760000463575125, 0.0, 0.0, 0.0, 0.0, 0.0, 1.756480392031324E9, 0.0, 2025-08-29 12:13:12.031
80.0, 268.9567752634175, -984.4557352862321, 140.20697938883677, 68.71318188589066, 0.0, 0.03200000151991844, 0.9760000463575125, 0.0, 0.0, 0.0, 0.0, 0.0, 1.7564803920469663E9, 0.0, 2025-08-29 12:13:12.046
80.0, 396.8520039981231, -849.9782826295123, 38.93048858875409, -39.3886263333261, 0.0, 0.03200000151991844, 0.9760000463575125, 0.0, 0.0, 0.0, 0.0, 0.0, 1.7564803920469663E9, 0.0, 2025-08-29 12:13:12.046
81.0, 634.7077712300234, -1019.1601369250566, 212.96299312682822, 135.2534818975255, 0.0, 0.03200000151991844, 0.9760000463575125, 0.0, 0.0, 0.0, 0.0, 0.0, 1.7564803920477552E9, 0.0, 2025-08-29 12:13:12.047
81.0, 659.5407069358043, -1049.9152042106725, 205.1540820193477, 111.47519797924906, 0.0, 0.03200000151991844, 0.9760000463575125, 0.0, 0.0, 0.0, 0.0, 0.0, 1.7564803920477552E9, 0.0, 2025-08-29 12:13:12.047
82.0, 785.9250160884112, -1275.7341034351848, 29.15813000453636, -32.28281641751528, 0.0, 0.03200000151991844, 0.9760000463575125, 0.0, 0.0, 0.0, 0.0, 0.0, 1.7564803920613098E9, 0.0, 2025-08-29 12:13:12.061
82.0, 961.8405602541752, -1325.4111945466138, 133.02263157395646, 48.543901424854994, 0.0, 0.03200000151991844, 0.9760000463575125, 0.0, 0.0, 0.0, 0.0, 0.0, 1.7564803920613098E9, 0.0, 2025-08-29 12:13:12.061
83.0, 874.6616223370656, -1413.656003951095, 256.37575181247666, 163.05215826816857, 0.0, 0.03200000151991844, 0.9760000463575125, 0.0, 0.0, 0.0, 0.0, 0.0, 1.7564803920769582E9, 0.0, 2025-08-29 12:13:12.076
83.0, 1108.3343114685267, -1256.2436148161069, 67.17047315416858, -1.4623008826747537, 0.0, 0.03200000151991844, 0.9760000463575125, 0.0, 0.0, 0.0, 0.0, 0.0, 1.7564803920769582E9, 0.0, 2025-08-29 12:13:12.076
84.0, 1076.732156842947, -1236.6820680978708, 78.71554431738332, 3.5678645577281713, 0.0, 0.03200000151991844, 0.9760000463575125, 0.0, 0.0, 0.0, 0.0, 0.0, 1.756480392077695E9, 0.0, 2025-08-29 12:13:12.077
84.0, 964.6604448207654, -999.736966505181, 246.66323162754998, 153.82208517752588, 0.0, 0.03200000151991844, 0.9760000463575125, 0.0, 0.0, 0.0, 0.0, 0.0, 1.756480392077695E9, 0.0, 2025-08-29 12:13:12.077
85.0, 754.6482327589765, -993.0163662848063, 134.02866466203704, 55.42157744336873, 0.0, 0.03200000151991844, 0.9760000463575125, 0.0, 0.0, 0.0, 0.0, 0.0, 1.756480392091354E9, 0.0, 2025-08-29 12:13:12.091
85.0, 887.3155738371424, -849.8399063311517, 33.73576755030081, -41.1688187122345, 0.0, 0.03200000151991844, 0.9760000463575125, 0.0, 0.0, 0.0, 0.0, 0.0, 1.756480392091354E9, 0.0, 2025-08-29 12:13:12.091
86.0, 1119.7372664334252, -1037.25751281064, 208.8191839759238, 112.87392056267709, 0.0, 0.03200000151991844, 0.9760000463575125, 0.0, 0.0, 0.0, 0.0, 0.0, 1.7564803921069648E9, 0.0, 2025-08-29 12:13:12.106
86.0, 1141.7428377727047, -1062.2531341644935, 185.98709474643692, 90.88704872317612, 0.0, 0.03200000151991844, 0.9760000463575125, 0.0, 0.0, 0.0, 0.0, 0.0, 1.7564803921069648E9, 0.0, 2025-08-29 12:13:12.106
87.0, 1275.2666159407236, -1269.5146498088725, 26.73093493329361, -56.536067630164325, 0.0, 0.03200000151991844, 0.9760000463575125, 0.0, 0.0, 0.0, 0.0, 0.0, 1.7564803921077049E9, 0.0, 2025-08-29 12:13:12.107
87.0, 1451.477612202987, -1324.3939417586662, 135.0047785504721, 43.17714498843998, 0.0, 0.03200000151991844, 0.9760000463575125, 0.0, 0.0, 0.0, 0.0, 0.0, 1.7564803921077049E9, 0.0, 2025-08-29 12:13:12.107
88.0, 1329.2483319011517, -1450.38182151597, 236.19899155152962, 132.85620602592826, 0.0, 0.03200000151991844, 0.9760000463575125, 0.0, 0.0, 0.0, 0.0, 0.0, 1.756480392121286E9, 0.0, 2025-08-29 12:13:12.121
88.0, 1106.8570509860292, -1250.3757117856294, 62.761131106410176, -18.49380528088659, 0.0, 0.03200000151991844, 0.9760000463575125, 0.0, 0.0, 0.0, 0.0, 0.0, 1.756480392121286E9, 0.0, 2025-08-29 12:13:12.121
89.0, 1074.4919567694888, -1227.5230531063862, 74.71011146483943, -2.255159673281014, 0.0, 0.03200000151991844, 0.9760000463575125, 0.0, 0.0, 0.0, 0.0, 0.0, 1.7564803921369565E9, 0.0, 2025-08-29 12:13:12.136
89.0, 949.8841000958346, -1020.7252850565128, 242.25762947974727, 140.433243336156, 0.0, 0.03200000151991844, 0.9760000463575125, 0.0, 0.0, 0.0, 0.0, 0.0, 1.7564803921369565E9, 0.0, 2025-08-29 12:13:12.136
90.0, 753.3841465739533, -987.1933420537971, 124.91452847002074, 25.251804500818253, 0.0, 0.03200000151991844, 0.9760000463575125, 0.0, 0.0, 0.0, 0.0, 0.0, 1.7564803921376626E9, 0.0, 2025-08-29 12:13:12.137
90.0, 897.162730420474, -840.7594292387366, 28.862677908036858, -51.330126891843975, 0.0, 0.03200000151991844, 0.9760000463575125, 0.0, 0.0, 0.0, 0.0, 0.0, 1.7564803921376626E9, 0.0, 2025-08-29 12:13:12.137
91.0, 1093.4270702451468, -1053.4737190185115, 203.64316243724898, 94.07718338537961, 0.0, 0.03200000151991844, 0.9760000463575125, 0.0, 0.0, 0.0, 0.0, 0.0, 1.756480392151293E9, 0.0, 2025-08-29 12:13:12.151
91.0, 1155.030702315271, -1053.9804754625075, 196.7467869189568, 102.51065778546035, 0.0, 0.03200000151991844, 0.9760000463575125, 0.0, 0.0, 0.0, 0.0, 0.0, 1.756480392151293E9, 0.0, 2025-08-29 12:13:12.151
92.0, 1289.1154654766433, -1241.4691400411539, 10.032281631138176, -61.775667468085885, 0.0, 0.03200000151991844, 0.9760000463575125, 0.0, 0.0, 0.0, 0.0, 0.0, 1.7564803921669617E9, 0.0, 2025-08-29 12:13:12.166
92.0, 1461.283629886806, -1321.9256077879108, 129.7128201131709, 30.63726043701172, 0.0, 0.03200000151991844, 0.9760000463575125, 0.0, 0.0, 0.0, 0.0, 0.0, 1.7564803921669617E9, 0.0, 2025-08-29 12:13:12.166
93.0, 1333.429540051613, -1461.235011187382, 238.18113852804527, 145.5868254750967, 0.0, 0.03200000151991844, 0.9760000463575125, 0.0, 0.0, 0.0, 0.0, 0.0, 1.756480392167666E9, 0.0, 2025-08-29 12:13:12.167
93.0, 1141.2229916788638, -1699.479728014674, 65.95126576861367, -10.8569295713678, 0.0, 0.03200000151991844, 0.9760000463575125, 0.0, 0.0, 0.0, 0.0, 0.0, 1.756480392167666E9, 0.0, 2025-08-29 12:13:12.167
94.0, 1088.3482861053199, -1713.3996356497519, 56.736152277793735, -20.322616359218955, 0.0, 0.03200000151991844, 0.9760000463575125, 0.0, 0.0, 0.0, 0.0, 0.0, 1.756480392181281E9, 0.0, 2025-08-29 12:13:12.181
94.0, 938.4250466316007, -1542.3627909761854, 237.02550944173709, 149.31550573091954, 0.0, 0.03200000151991844, 0.9760000463575125, 0.0, 0.0, 0.0, 0.0, 0.0, 1.756480392181281E9, 0.0, 2025-08-29 12:13:12.181
95.0, 772.4052777485922, -1445.5966195226647, 131.94554038671777, 53.368372367694974, 0.0, 0.03200000151991844, 0.9760000463575125, 0.0, 0.0, 0.0, 0.0, 0.0, 1.7564803921969333E9, 0.0, 2025-08-29 12:13:12.196
95.0, 921.6665549301542, -1280.8484166245908, 12.182724105659872, -63.54090024717152, 0.0, 0.03200000151991844, 0.9760000463575125, 0.0, 0.0, 0.0, 0.0, 0.0, 1.7564803921969333E9, 0.0, 2025-08-29 12:13:12.196
96.0, 1095.8019067170098, -1069.4898405787535, 193.294859259855, 107.13691403064877, 0.0, 0.03200000151991844, 0.9760000463575125, 0.0, 0.0, 0.0, 0.0, 0.0, 1.7564803921976507E9, 0.0, 2025-08-29 12:13:12.197
96.0, 1146.5673087155446, -1055.2744808471762, 186.46206204080954, 114.85980743914843, 0.0, 0.03200000151991844, 0.9760000463575125, 0.0, 0.0, 0.0, 0.0, 0.0, 1.7564803921976507E9, 0.0, 2025-08-29 12:13:12.197
97.0, 1324.4238609583117, -1192.6522259195335, 11.704016911331564, -54.21358975768089, 0.0, 0.03200000151991844, 0.9760000463575125, 0.0, 0.0, 0.0, 0.0, 0.0, 1.756480392211262E9, 0.0, 2025-08-29 12:13:12.211
97.0, 1458.9274929147214, -1315.8968890593387, 118.01815295172855, 51.707856787368655, 0.0, 0.03200000151991844, 0.9760000463575125, 0.0, 0.0, 0.0, 0.0, 0.0, 1.756480392211262E9, 0.0, 2025-08-29 12:13:12.211
98.0, 1317.2656924431212, -1461.717458281666, 221.75923782261088, 130.18217755760998, 0.0, 0.03200000151991844, 0.9760000463575125, 0.0, 0.0, 0.0, 0.0, 0.0, 1.7564803922269676E9, 0.0, 2025-08-29 12:13:12.226
98.0, 1146.1222606208175, -1670.0429754634388, 37.30737200798467, -35.05782218463719, 0.0, 0.03200000151991844, 0.9760000463575125, 0.0, 0.0, 0.0, 0.0, 0.0, 1.7564803922269676E9, 0.0, 2025-08-29 12:13:12.226
99.0, 1109.0822914596647, -1665.1044375719503, 41.56337815755978, -37.05118886101991, 0.0, 0.03200000151991844, 0.9760000463575125, 0.0, 0.0, 0.0, 0.0, 0.0, 1.7564803922276943E9, 0.0, 2025-08-29 12:13:12.227
99.0, 940.9457392017357, -1515.7477929415181, 215.42758719762787, 124.49378972500563, 0.0, 0.03200000151991844, 0.9760000463575125, 0.0, 0.0, 0.0, 0.0, 0.0, 1.7564803922276943E9, 0.0, 2025-08-29 12:13:12.227
100.0, 802.9153815871105, -1401.3367734970525, 101.19234305107966, 12.379068853333592, 0.0, 0.03200000151991844, 0.9760000463575125, 0.0, 0.0, 0.0, 0.0, 0.0, 1.7564803922419803E9, 0.0, 2025-08-29 12:13:12.241
100.0, 963.4262778353877, -1218.8315256093629, -13.304694092366844, -85.36321648862213, 0.0, 0.03200000151991844, 0.9760000463575125, 0.0, 0.0, 0.0, 0.0, 0.0, 1.7564803922419803E9, 0.0, 2025-08-29 12:13:12.241
0.0, -347.95655197743326, -542.4163900734857, 159.03176581580192, 65.39215072523803, 0.0, 0.03200000151991844, 0.9760000463575125, 0.0, 0.0, 0.0, 0.0, 0.0, 1.7564803922427104E9, 0.0, 2025-08-29 12:13:12.242
1.0, -286.3977987067774, -507.74003768432885, 165.91318173427135, 80.98753354046494, 0.0, 0.03200000151991844, 0.9760000463575125, 0.0, 0.0, 0.0, 0.0, 0.0, 1.7564803922726328E9, 0.0, 2025-08-29 12:13:12.272
1.0, -108.27571356715634, -657.4070940110832, -18.06745668593794, -90.2662253305316, 0.0, 0.03200000151991844, 0.9760000463575125, 0.0, 0.0, 0.0, 0.0, 0.0, 1.7564803922726328E9, 0.0, 2025-08-29 12:13:12.272
2.0, 5.396675636060536, -811.09828269016, 95.3786685699597, 0.033659099601209164, 0.0, 0.03200000151991844, 0.9760000463575125, 0.0, 0.0, 0.0, 0.0, 0.0, 1.756480392273392E9, 0.0, 2025-08-29 12:13:12.273
2.0, -154.57941491855308, -989.9720877208747, 201.80500160902739, 102.43959968630224, 0.0, 0.03200000151991844, 0.9760000463575125, 0.0, 0.0, 0.0, 0.0, 0.0, 1.756480392273392E9, 0.0, 2025-08-29 12:13:12.273
3.0, -311.657083007507, -1178.921183232218, 39.88229312747717, -45.56694106012583, 0.0, 0.03200000151991844, 0.9760000463575125, 0.0, 0.0, 0.0, 0.0, 0.0, 1.756480392274123E9, 0.0, 2025-08-29 12:13:12.274
3.0, -368.7653553308919, -1206.8582359012216, 52.60169287677854, -37.253143458627164, 0.0, 0.03200000151991844, 0.9760000463575125, 0.0, 0.0, 0.0, 0.0, 0.0, 1.756480392274123E9, 0.0, 2025-08-29 12:13:12.274
4.0, -545.4849779871292, -1084.8626993466169, 245.6366290897131, 129.16492476966232, 0.0, 0.03200000151991844, 0.9760000463575125, 0.0, 0.0, 0.0, 0.0, 0.0, 1.756480392286256E9, 0.0, 2025-08-29 12:13:12.286
4.0, -693.6429846817628, -963.3720492860302, 150.62073081545532, 45.54450166039169, 0.0, 0.03200000151991844, 0.9760000463575125, 0.0, 0.0, 0.0, 0.0, 0.0, 1.756480392286256E9, 0.0, 2025-08-29 12:13:12.286
5.0, -520.0947971879505, -771.7825844059698, 56.969896025024354, -30.674659436568618, 0.0, 0.03200000151991844, 0.9760000463575125, 0.0, 0.0, 0.0, 0.0, 0.0, 1.756480392301955E9, 0.0, 2025-08-29 12:13:12.301
5.0, -393.4561748383567, -624.2528809038922, 239.20774106588215, 129.70347036328167, 0.0, 0.03200000151991844, 0.9760000463575125, 0.0, 0.0, 0.0, 0.0, 0.0, 1.756480392301955E9, 0.0, 2025-08-29 12:13:12.301
6.0, -335.8168367212638, -605.2280098292977, 256.1120888656005, 149.37534413021058, 0.0, 0.03200000151991844, 0.9760000463575125, 0.0, 0.0, 0.0, 0.0, 0.0, 1.7564803923027146E9, 0.0, 2025-08-29 12:13:12.302
6.0, -124.13662927923724, -700.056913105771, 81.48868013452739, -2.01206617616117, 0.0, 0.03200000151991844, 0.9760000463575125, 0.0, 0.0, 0.0, 0.0, 0.0, 1.7564803923027146E9, 0.0, 2025-08-29 12:13:12.302
7.0, -9.514305487275124, -851.3882249128073, 186.9015002856031, 96.44080015737563, 0.0, 0.03200000151991844, 0.9760000463575125, 0.0, 0.0, 0.0, 0.0, 0.0, 1.7564803923163044E9, 0.0, 2025-08-29 12:13:12.316
7.0, -152.3092956454493, -1012.4002677551471, 321.02179249655455, 215.6201920453459, 0.0, 0.03200000151991844, 0.9760000463575125, 0.0, 0.0, 0.0, 0.0, 0.0, 1.7564803923163044E9, 0.0, 2025-08-29 12:13:12.316
8.0, -318.676875224337, -1203.5783436400816, 110.48786439094692, 40.52181601990014, 0.0, 0.03200000151991844, 0.9760000463575125, 0.0, 0.0, 0.0, 0.0, 0.0, 1.7564803923319972E9, 0.0, 2025-08-29 12:13:12.331
8.0, -366.1736046615988, -1223.1866391077638, 92.4877259042114, 14.682847226038575, 0.0, 0.03200000151991844, 0.9760000463575125, 0.0, 0.0, 0.0, 0.0, 0.0, 1.7564803923319972E9, 0.0, 2025-08-29 12:13:12.331
9.0, -558.1594989369623, -1100.9592287559062, 300.16437044367194, 182.10694854240865, 0.0, 0.03200000151991844, 0.9760000463575125, 0.0, 0.0, 0.0, 0.0, 0.0, 1.756480392332718E9, 0.0, 2025-08-29 12:13:12.332
9.0, -693.9571362780407, -966.3714490504935, 193.95495160203427, 113.21425145864487, 0.0, 0.03200000151991844, 0.9760000463575125, 0.0, 0.0, 0.0, 0.0, 0.0, 1.756480392332718E9, 0.0, 2025-08-29 12:13:12.332
10.0, -530.7123731621541, -776.629494748544, 76.83998448960483, -20.341315858997405, 0.0, 0.03200000151991844, 0.9760000463575125, 0.0, 0.0, 0.0, 0.0, 0.0, 1.7564803923626995E9, 0.0, 2025-08-29 12:13:12.362
10.0, -379.2071560071781, -612.8013072395697, 256.06721006613225, 147.2884799549356, 0.0, 0.03200000151991844, 0.9760000463575125, 0.0, 0.0, 0.0, 0.0, 0.0, 1.7564803923626995E9, 0.0, 2025-08-29 12:13:12.362
11.0, -332.6341818589717, -598.2830156115815, 256.77779105771333, 148.73208133783191, 0.0, 0.03200000151991844, 0.9760000463575125, 0.0, 0.0, 0.0, 0.0, 0.0, 1.7564803923634431E9, 0.0, 2025-08-29 12:13:12.363
11.0, -128.32531722960994, -694.1441312758252, 71.19273555651307, -11.227179666981101, 0.0, 0.03200000151991844, 0.9760000463575125, 0.0, 0.0, 0.0, 0.0, 0.0, 1.7564803923634431E9, 0.0, 2025-08-29 12:13:12.363
12.0, -1.974667176604271, -825.9195062145591, 166.12261613178998, 62.168356963433325, 0.0, 0.03200000151991844, 0.9760000463575125, 0.0, 0.0, 0.0, 0.0, 0.0, 1.756480392364202E9, 0.0, 2025-08-29 12:13:12.364
12.0, -168.49558265367523, -1017.1200214992277, 273.6073408583179, 161.94140798132867, 0.0, 0.03200000151991844, 0.9760000463575125, 0.0, 0.0, 0.0, 0.0, 0.0, 1.756480392364202E9, 0.0, 2025-08-29 12:13:12.364
13.0, -334.825763233006, -1201.6261158632115, 95.06077707372606, 14.810003824532032, 0.0, 0.03200000151991844, 0.9760000463575125, 0.0, 0.0, 0.0, 0.0, 0.0, 1.7564803923762996E9, 0.0, 2025-08-29 12:13:12.376
13.0, -366.45035725831985, -1192.9775972156785, 93.83408988825977, 7.7490727081894875, 0.0, 0.03200000151991844, 0.9760000463575125, 0.0, 0.0, 0.0, 0.0, 0.0, 1.7564803923762996E9, 0.0, 2025-08-29 12:13:12.376
14.0, -561.4206916983239, -1093.3429224961437, 249.46254674438387, 151.34253150690347, 0.0, 0.03200000151991844, 0.9760000463575125, 0.0, 0.0, 0.0, 0.0, 0.0, 1.7564803923919606E9, 0.0, 2025-08-29 12:13:12.391
14.0, -717.170695303008, -983.0570127028041, 155.83789125364274, 63.71293564513326, 0.0, 0.03200000151991844, 0.9760000463575125, 0.0, 0.0, 0.0, 0.0, 0.0, 1.7564803923919606E9, 0.0, 2025-08-29 12:13:12.391
15.0, -542.870787918102, -774.5445005232468, 24.832935705780983, -50.092220006510615, 0.0, 0.03200000151991844, 0.9760000463575125, 0.0, 0.0, 0.0, 0.0, 0.0, 1.7564803923926923E9, 0.0, 2025-08-29 12:13:12.392
15.0, -410.9289874313399, -626.1321806316264, 201.78630210924894, 92.76073860097677, 0.0, 0.03200000151991844, 0.9760000463575125, 0.0, 0.0, 0.0, 0.0, 0.0, 1.7564803923926923E9, 0.0, 2025-08-29 12:13:12.392
16.0, -361.34539381880313, -619.3966208114289, 202.70631749834865, 91.81454391218722, 0.0, 0.03200000151991844, 0.9760000463575125, 0.0, 0.0, 0.0, 0.0, 0.0, 1.7564803924062903E9, 0.0, 2025-08-29 12:13:12.406
16.0, -154.3924199207686, -701.9175133337267, 24.98627160396427, -64.90596373099834, 0.0, 0.03200000151991844, 0.9760000463575125, 0.0, 0.0, 0.0, 0.0, 0.0, 1.7564803924062903E9, 0.0, 2025-08-29 12:13:12.406
17.0, -38.1282800482586, -850.1559278774075, 115.95559812616557, 24.335529011674225, 0.0, 0.03200000151991844, 0.9760000463575125, 0.0, 0.0, 0.0, 0.0, 0.0, 1.756480392421985E9, 0.0, 2025-08-29 12:13:12.421
17.0, -198.0033933040686, -1041.6406755587086, 233.2613001363352, 136.34927258454263, 0.0, 0.03200000151991844, 0.9760000463575125, 0.0, 0.0, 0.0, 0.0, 0.0, 1.756480392421985E9, 0.0, 2025-08-29 12:13:12.421
18.0, -329.9713730905205, -1196.3771662754007, 69.63319727499038, -9.009418993256986, 0.0, 0.03200000151991844, 0.9760000463575125, 0.0, 0.0, 0.0, 0.0, 0.0, 1.7564803924226944E9, 0.0, 2025-08-29 12:13:12.422
18.0, -378.0290875211358, -1195.7021143333986, 59.04928040038794, -31.205725230276585, 0.0, 0.03200000151991844, 0.9760000463575125, 0.0, 0.0, 0.0, 0.0, 0.0, 1.7564803924226944E9, 0.0, 2025-08-29 12:13:12.422
19.0, -580.4119036733173, -1113.2223607106134, 232.21412814874202, 126.4684569016099, 0.0, 0.03200000151991844, 0.9760000463575125, 0.0, 0.0, 0.0, 0.0, 0.0, 1.7564803924362988E9, 0.0, 2025-08-29 12:13:12.436
19.0, -718.9097487824038, -992.1244001453742, 136.2819543853402, 56.68940352834761, 0.0, 0.03200000151991844, 0.9760000463575125, 0.0, 0.0, 0.0, 0.0, 0.0, 1.7564803924362988E9, 0.0, 2025-08-29 12:13:12.436
20.0, -527.2754051028751, -758.236666766461, 14.09568293299526, -66.05785291735083, 0.0, 0.03200000151991844, 0.9760000463575125, 0.0, 0.0, 0.0, 0.0, 0.0, 1.7564803924519997E9, 0.0, 2025-08-29 12:13:12.451
20.0, -390.2510805763304, -609.1885638823733, 190.95555183757097, 91.76218531280756, 0.0, 0.03200000151991844, 0.9760000463575125, 0.0, 0.0, 0.0, 0.0, 0.0, 1.7564803924519997E9, 0.0, 2025-08-29 12:13:12.451
21.0, -341.4865250540897, -601.7237235708162, 206.19938405696303, 108.943285709247, 0.0, 0.03200000151991844, 0.9760000463575125, 0.0, 0.0, 0.0, 0.0, 0.0, 1.7564803924527037E9, 0.0, 2025-08-29 12:13:12.452
21.0, -129.95965351024643, -670.5865014549345, 22.1215082379058, -49.355459715239704, 0.0, 0.03200000151991844, 0.9760000463575125, 0.0, 0.0, 0.0, 0.0, 0.0, 1.7564803924527037E9, 0.0, 2025-08-29 12:13:12.452
22.0, -2.9956598645076156, -821.9215531619266, 126.63675239961594, 39.95335122663528, 0.0, 0.03200000151991844, 0.9760000463575125, 0.0, 0.0, 0.0, 0.0, 0.0, 1.7564803924662485E9, 0.0, 2025-08-29 12:13:12.466
22.0, -186.69019593810663, -1052.3274396820925, 236.69826819561422, 138.65305095724761, 0.0, 0.03200000151991844, 0.9760000463575125, 0.0, 0.0, 0.0, 0.0, 0.0, 1.7564803924662485E9, 0.0, 2025-08-29 12:13:12.466
23.0, -318.45996102690697, -1188.0839381236583, 70.22410146798939, -9.518045387230814, 0.0, 0.03200000151991844, 0.9760000463575125, 0.0, 0.0, 0.0, 0.0, 0.0, 1.7564803924820173E9, 0.0, 2025-08-29 12:13:12.482
23.0, -366.7308497549966, -1187.6108407792635, 53.13275867048651, -29.268457053229213, 0.0, 0.03200000151991844, 0.9760000463575125, 0.0, 0.0, 0.0, 0.0, 0.0, 1.7564803924820173E9, 0.0, 2025-08-29 12:13:12.482
24.0, -573.2425154582597, -1110.621260291431, 227.13160410895944, 132.0296881357208, 0.0, 0.03200000151991844, 0.9760000463575125, 0.0, 0.0, 0.0, 0.0, 0.0, 1.756480392482758E9, 0.0, 2025-08-29 12:13:12.482
24.0, -710.0349661875516, -978.112864961382, 131.60707944072783, 46.95818384364247, 0.0, 0.03200000151991844, 0.9760000463575125, 0.0, 0.0, 0.0, 0.0, 0.0, 1.756480392482758E9, 0.0, 2025-08-29 12:13:12.482
25.0, -509.86617080913857, -735.9823920801282, 7.23670641425997, -74.95881481189281, 0.0, 0.03200000151991844, 0.9760000463575125, 0.0, 0.0, 0.0, 0.0, 0.0, 1.756480392496305E9, 0.0, 2025-08-29 12:13:12.496
25.0, -414.1901801927015, -648.220029769931, 174.81788352876902, 77.73382057901472, 0.0, 0.03200000151991844, 0.9760000463575125, 0.0, 0.0, 0.0, 0.0, 0.0, 1.756480392496305E9, 0.0, 2025-08-29 12:13:12.496
26.0, -360.0252091344446, -620.5746892974712, 211.0313347997144, 106.11966124270111, 0.0, 0.03200000151991844, 0.9760000463575125, 0.0, 0.0, 0.0, 0.0, 0.0, 1.756480392512012E9, 0.0, 2025-08-29 12:13:12.512
26.0, -146.07114251935855, -687.4777596048079, 12.405248153023422, -49.99124270770699, 0.0, 0.03200000151991844, 0.9760000463575125, 0.0, 0.0, 0.0, 0.0, 0.0, 1.756480392512012E9, 0.0, 2025-08-29 12:13:12.512
27.0, -19.174467072822154, -852.5719032487832, 124.7256635222584, 29.676106148399413, 0.0, 0.03200000151991844, 0.9760000463575125, 0.0, 0.0, 0.0, 0.0, 0.0, 1.7564803925127428E9, 0.0, 2025-08-29 12:13:12.512
27.0, -207.1212693960406, -1069.0578821338713, 245.8198841875419, 138.27532106172293, 0.0, 0.03200000151991844, 0.9760000463575125, 0.0, 0.0, 0.0, 0.0, 0.0, 1.7564803925127428E9, 0.0, 2025-08-29 12:13:12.512
28.0, -323.9688336616382, -1178.2274317904375, 73.28707953169942, -12.659561350010335, 0.0, 0.03200000151991844, 0.9760000463575125, 0.0, 0.0, 0.0, 0.0, 0.0, 1.756480392526416E9, 0.0, 2025-08-29 12:13:12.526
28.0, -369.42357772309333, -1192.7606830182485, 63.406263848766685, -32.006063820794225, 0.0, 0.03200000151991844, 0.9760000463575125, 0.0, 0.0, 0.0, 0.0, 0.0, 1.756480392526416E9, 0.0, 2025-08-29 12:13:12.526
29.0, -596.6617689807899, -1154.0340189770795, 218.53357411082834, 112.85896096285433, 0.0, 0.03200000151991844, 0.9760000463575125, 0.0, 0.0, 0.0, 0.0, 0.0, 1.7564803925420115E9, 0.0, 2025-08-29 12:13:12.542
29.0, -707.4319958183914, -970.4498099521734, 132.99458232428879, 37.49249705579132, 0.0, 0.03200000151991844, 0.9760000463575125, 0.0, 0.0, 0.0, 0.0, 0.0, 1.7564803925420115E9, 0.0, 2025-08-29 12:13:12.542
30.0, -512.3793835793622, -742.0821689078584, 12.147195056080818, -68.24943429138511, 0.0, 0.03200000151991844, 0.9760000463575125, 0.0, 0.0, 0.0, 0.0, 0.0, 1.7564803925427318E9, 0.0, 2025-08-29 12:13:12.542
30.0, -413.0943895056844, -657.7380751571618, 179.39178117457777, 82.87244311813265, 0.0, 0.03200000151991844, 0.9760000463575125, 0.0, 0.0, 0.0, 0.0, 0.0, 1.7564803925427318E9, 0.0, 2025-08-29 12:13:12.542
31.0, -359.63999943900853, -616.2177058490925, 189.74756415188313, 104.55638306122273, 0.0, 0.03200000151991844, 0.9760000463575125, 0.0, 0.0, 0.0, 0.0, 0.0, 1.756480392556288E9, 0.0, 2025-08-29 12:13:12.556
31.0, -124.21142727835104, -652.6144122178666, 11.631088862195611, -56.984855624847114, 0.0, 0.03200000151991844, 0.9760000463575125, 0.0, 0.0, 0.0, 0.0, 0.0, 1.756480392556288E9, 0.0, 2025-08-29 12:13:12.556
32.0, -18.239492083899677, -843.480206456501, 103.37457467522472, 7.898668706417084, 0.0, 0.03200000151991844, 0.9760000463575125, 0.0, 0.0, 0.0, 0.0, 0.0, 1.7564803925720057E9, 0.0, 2025-08-29 12:13:12.572
32.0, -199.50683308625594, -1043.2675320394337, 227.0343667101115, 122.96043074317276, 0.0, 0.03200000151991844, 0.9760000463575125, 0.0, 0.0, 0.0, 0.0, 0.0, 1.7564803925720057E9, 0.0, 2025-08-29 12:13:12.572
33.0, -296.05422039236873, -1132.3500790339895, 56.27801453322172, -26.807602882385254, 0.0, 0.03200000151991844, 0.9760000463575125, 0.0, 0.0, 0.0, 0.0, 0.0, 1.756480392572737E9, 0.0, 2025-08-29 12:13:12.572
33.0, -355.5485488874838, -1171.8696018657647, 29.100161555223167, -61.08378597628325, 0.0, 0.03200000151991844, 0.9760000463575125, 0.0, 0.0, 0.0, 0.0, 0.0, 1.756480392572737E9, 0.0, 2025-08-29 12:13:12.572
34.0, -581.0925654652528, -1120.101906679105, 207.00346254743636, 95.69282016623765, 0.0, 0.03200000151991844, 0.9760000463575125, 0.0, 0.0, 0.0, 0.0, 0.0, 1.7564803925862696E9, 0.0, 2025-08-29 12:13:12.586
34.0, -669.3710339693353, -904.5004141335376, 114.28760274592787, 24.238291612826288, 0.0, 0.03200000151991844, 0.9760000463575125, 0.0, 0.0, 0.0, 0.0, 0.0, 1.7564803925862696E9, 0.0, 2025-08-29 12:13:12.586
35.0, -469.40793308848515, -667.5085637914017, -9.368449389003217, -87.43512106407434, 0.0, 0.03200000151991844, 0.9760000463575125, 0.0, 0.0, 0.0, 0.0, 0.0, 1.7564803926020122E9, 0.0, 2025-08-29 12:13:12.602
35.0, -384.65245034266263, -613.9401067760773, 149.659576526843, 51.18427079357207, 0.0, 0.03200000151991844, 0.9760000463575125, 0.0, 0.0, 0.0, 0.0, 0.0, 1.7564803926020122E9, 0.0, 2025-08-29 12:13:12.602
36.0, -319.87364321015775, -552.0672019091435, 169.35014979355037, 76.47721419390291, 0.0, 0.03200000151991844, 0.9760000463575125, 0.0, 0.0, 0.0, 0.0, 0.0, 1.7564803926027272E9, 0.0, 2025-08-29 12:13:12.602
36.0, -536.5223077433184, -543.6318575590849, -17.996398586779833, -89.94085403438658, 0.0, 0.03200000151991844, 0.9760000463575125, 0.0, 0.0, 0.0, 0.0, 0.0, 1.7564803926027272E9, 0.0, 2025-08-29 12:13:12.602
37.0, -452.03235789434984, -769.9406836777925, 61.09500567615032, -29.915459745563567, 0.0, 0.03200000151991844, 0.9760000463575125, 0.0, 0.0, 0.0, 0.0, 0.0, 1.7564803926162453E9, 0.0, 2025-08-29 12:13:12.616
37.0, -646.5987831391394, -987.8515644459985, 192.69086541701108, 91.47047311626375, 0.0, 0.03200000151991844, 0.9760000463575125, 0.0, 0.0, 0.0, 0.0, 0.0, 1.7564803926162453E9, 0.0, 2025-08-29 12:13:12.616
38.0, -732.6520111695863, -1051.0652234470472, 5.23212003801018, -75.47492100577801, 0.0, 0.03200000151991844, 0.9760000463575125, 0.0, 0.0, 0.0, 0.0, 0.0, 1.7564803926320183E9, 0.0, 2025-08-29 12:13:12.632
38.0, -794.2332038399763, -1104.5532726133242, -21.167833749204874, -102.06934959068894, 0.0, 0.03200000151991844, 0.9760000463575125, 0.0, 0.0, 0.0, 0.0, 0.0, 1.7564803926320183E9, 0.0, 2025-08-29 12:13:12.632
39.0, -556.5924808555283, -1089.40667779278, 160.46040759887546, 75.20938810892403, 0.0, 0.03200000151991844, 0.9760000463575125, 0.0, 0.0, 0.0, 0.0, 0.0, 1.756480392632727E9, 0.0, 2025-08-29 12:13:12.632
39.0, -647.2532656313851, -859.1821764204651, 67.04892640560865, -9.458206987939775, 0.0, 0.03200000151991844, 0.9760000463575125, 0.0, 0.0, 0.0, 0.0, 0.0, 1.756480392632727E9, 0.0, 2025-08-29 12:13:12.632
40.0, -422.5133275440894, -1096.0263007143512, -55.10742584709078, -130.53746805340052, 0.0, 0.03200000151991844, 0.9760000463575125, 0.0, 0.0, 0.0, 0.0, 0.0, 1.7564803926464524E9, 0.0, 2025-08-29 12:13:12.646
40.0, -358.9144588476047, -1067.3767971037887, 107.4211464272812, 17.521431292407215, 0.0, 0.03200000151991844, 0.9760000463575125, 0.0, 0.0, 0.0, 0.0, 0.0, 1.7564803926464524E9, 0.0, 2025-08-29 12:13:12.646
41.0, -290.7734816549346, -1007.6094559119083, 130.9151979489252, 38.22551744710654, 0.0, 0.03200000151991844, 0.9760000463575125, 0.0, 0.0, 0.0, 0.0, 0.0, 1.7564803926620069E9, 0.0, 2025-08-29 12:13:12.662
41.0, -508.26736357808113, -1001.5489480337128, -53.44317036680877, -114.1679259473458, 0.0, 0.03200000151991844, 0.9760000463575125, 0.0, 0.0, 0.0, 0.0, 0.0, 1.7564803926620069E9, 0.0, 2025-08-29 12:13:12.662
42.0, -459.39996080705896, -787.9726113141514, 10.87562907114625, -72.31470554322004, 0.0, 0.03200000151991844, 0.9760000463575125, 0.0, 0.0, 0.0, 0.0, 0.0, 1.7564803926627443E9, 0.0, 2025-08-29 12:13:12.662
42.0, -655.6456011319533, -1019.4668087214231, 173.7108731418848, 71.20395525638014, 0.0, 0.03200000151991844, 0.9760000463575125, 0.0, 0.0, 0.0, 0.0, 0.0, 1.7564803926627443E9, 0.0, 2025-08-29 12:13:12.662
43.0, -738.4600758007728, -1061.2620606762357, 6.294251625426114, -67.87170439586043, 0.0, 0.03200000151991844, 0.9760000463575125, 0.0, 0.0, 0.0, 0.0, 0.0, 1.756480392676254E9, 0.0, 2025-08-29 12:13:12.676
43.0, -813.1944966153242, -1139.7999597457238, -27.263870676979423, -103.66254697181284, 0.0, 0.03200000151991844, 0.9760000463575125, 0.0, 0.0, 0.0, 0.0, 0.0, 1.756480392676254E9, 0.0, 2025-08-29 12:13:12.676
44.0, -579.3273326861672, -1134.5827993075363, 170.91716787498444, 62.35909186117351, 0.0, 0.03200000151991844, 0.9760000463575125, 0.0, 0.0, 0.0, 0.0, 0.0, 1.7564803926919835E9, 0.0, 2025-08-29 12:13:12.691
44.0, -687.6778442524374, -921.7824918287806, 85.14630229119211, -12.652081550098956, 0.0, 0.03200000151991844, 0.9760000463575125, 0.0, 0.0, 0.0, 0.0, 0.0, 1.7564803926919835E9, 0.0, 2025-08-29 12:13:12.691
45.0, -462.4666787707247, -1155.4963198597543, -49.42651781439781, -124.392812426202, 0.0, 0.03200000151991844, 0.9760000463575125, 0.0, 0.0, 0.0, 0.0, 0.0, 1.75648039269272E9, 0.0, 2025-08-29 12:13:12.692
45.0, -417.96373924799263, -1174.3341959365644, 118.92133879102767, 21.448326245881617, 0.0, 0.03200000151991844, 0.9760000463575125, 0.0, 0.0, 0.0, 0.0, 0.0, 1.75648039269272E9, 0.0, 2025-08-29 12:13:12.692
46.0, -377.5429005268961, -1123.2172433421947, 150.9199228119105, 57.2503885217011, 0.0, 0.03200000151991844, 0.9760000463575125, 0.0, 0.0, 0.0, 0.0, 0.0, 1.7564803927063031E9, 0.0, 2025-08-29 12:13:12.706
46.0, -593.3313880702481, -1105.2862930046394, -31.209465130232275, -109.98671779688448, 0.0, 0.03200000151991844, 0.9760000463575125, 0.0, 0.0, 0.0, 0.0, 0.0, 1.7564803927063031E9, 0.0, 2025-08-29 12:13:12.706
47.0, -517.7536198156886, -891.1153121921234, 62.85275865532458, -39.50830313190818, 0.0, 0.03200000151991844, 0.9760000463575125, 0.0, 0.0, 0.0, 0.0, 0.0, 1.7564803927220013E9, 0.0, 2025-08-29 12:13:12.722
47.0, -750.3810069095343, -663.7593140858226, 206.4686568537727, 99.96752581559122, 0.0, 0.03200000151991844, 0.9760000463575125, 0.0, 0.0, 0.0, 0.0, 0.0, 1.7564803927220013E9, 0.0, 2025-08-29 12:13:12.722
48.0, -818.0040079583414, -676.6451393831521, 36.905332762748, -28.269903765060008, 0.0, 0.03200000151991844, 0.9760000463575125, 0.0, 0.0, 0.0, 0.0, 0.0, 1.7564803927227151E9, 0.0, 2025-08-29 12:13:12.722
48.0, -868.0700486651622, -738.263731053099, 26.063362791202962, -55.335559744387865, 0.0, 0.03200000151991844, 0.9760000463575125, 0.0, 0.0, 0.0, 0.0, 0.0, 1.7564803927227151E9, 0.0, 2025-08-29 12:13:12.722
49.0, -668.4042698307894, -780.3806144041009, 223.5899188509211, 115.3534742332995, 0.0, 0.03200000151991844, 0.9760000463575125, 0.0, 0.0, 0.0, 0.0, 0.0, 1.7564803927363088E9, 0.0, 2025-08-29 12:13:12.736
49.0, -753.4589445730671, -536.1838467973284, 144.4050170890987, 52.927064172923565, 0.0, 0.03200000151991844, 0.9760000463575125, 0.0, 0.0, 0.0, 0.0, 0.0, 1.7564803927363088E9, 0.0, 2025-08-29 12:13:12.736
50.0, -532.8254166371189, -764.0596909974702, 23.38559442292899, -51.47224309016019, 0.0, 0.03200000151991844, 0.9760000463575125, 0.0, 0.0, 0.0, 0.0, 0.0, 1.7564803927520063E9, 0.0, 2025-08-29 12:13:12.752
50.0, -501.382207759656, -806.357959496323, 194.73285079281777, 79.32701796013862, 0.0, 0.03200000151991844, 0.9760000463575125, 0.0, 0.0, 0.0, 0.0, 0.0, 1.7564803927520063E9, 0.0, 2025-08-29 12:13:12.752
51.0, -446.01298891566694, -751.5497256456874, 224.5548130394891, 126.34504020307213, 0.0, 0.03200000151991844, 0.9760000463575125, 0.0, 0.0, 0.0, 0.0, 0.0, 1.756480392752709E9, 0.0, 2025-08-29 12:13:12.752
51.0, -639.9081021184102, -704.3278788551688, 47.77722193393856, -30.94393223337829, 0.0, 0.03200000151991844, 0.9760000463575125, 0.0, 0.0, 0.0, 0.0, 0.0, 1.756480392752709E9, 0.0, 2025-08-29 12:13:12.752
52.0, -612.5264245928265, -520.7343200803734, 139.41973044816405, 35.80954207573086, 0.0, 0.03200000151991844, 0.9760000463575125, 0.0, 0.0, 0.0, 0.0, 0.0, 1.7564803927663102E9, 0.0, 2025-08-29 12:13:12.766
52.0, -819.0904488954693, -288.53889143140987, 280.2494031796232, 168.03370500914752, 0.0, 0.03200000151991844, 0.9760000463575125, 0.0, 0.0, 0.0, 0.0, 0.0, 1.7564803927663102E9, 0.0, 2025-08-29 12:13:12.766
53.0, -858.1443541827612, -260.87111155921593, 118.81288169231266, 31.086048431694508, 0.0, 0.03200000151991844, 0.9760000463575125, 0.0, 0.0, 0.0, 0.0, 0.0, 1.7564803927819817E9, 0.0, 2025-08-29 12:13:12.781
53.0, -915.4807604034431, -328.8811922534369, 97.5627701440826, 0.7367602912709117, 0.0, 0.03200000151991844, 0.9760000463575125, 0.0, 0.0, 0.0, 0.0, 0.0, 1.7564803927819817E9, 0.0, 2025-08-29 12:13:12.781
54.0, -713.8851931919344, -372.41923758760095, 289.52061516977847, 170.8909885752946, 0.0, 0.03200000151991844, 0.9760000463575125, 0.0, 0.0, 0.0, 0.0, 0.0, 1.7564803927827067E9, 0.0, 2025-08-29 12:13:12.782
54.0, -758.6985444109887, -551.8502877117135, 200.23798352759331, 110.18493249453604, 0.0, 0.03200000151991844, 0.9760000463575125, 0.0, 0.0, 0.0, 0.0, 0.0, 1.7564803927827067E9, 0.0, 2025-08-29 12:13:12.782
55.0, -528.2215997916646, -776.532257349696, 68.17089639231563, -8.257699102163315, 0.0, 0.03200000151991844, 0.9760000463575125, 0.0, 0.0, 0.0, 0.0, 0.0, 1.7564803927963188E9, 0.0, 2025-08-29 12:13:12.796
55.0, -513.7463170131668, -827.6791291437112, 227.83844520058483, 118.8727200916037, 0.0, 0.03200000151991844, 0.9760000463575125, 0.0, 0.0, 0.0, 0.0, 0.0, 1.7564803927963188E9, 0.0, 2025-08-29 12:13:12.796
56.0, -414.69132678676397, -708.294042758178, 259.55653672479093, 163.7851786594838, 0.0, 0.03200000151991844, 0.9760000463575125, 0.0, 0.0, 0.0, 0.0, 0.0, 1.7564803928123848E9, 0.0, 2025-08-29 12:13:12.812
56.0, -592.837721276097, -618.310179874301, 70.66914956271648, -4.543978446163237, 0.0, 0.03200000151991844, 0.9760000463575125, 0.0, 0.0, 0.0, 0.0, 0.0, 1.7564803928123848E9, 0.0, 2025-08-29 12:13:12.812
57.0, -538.9177136649378, -433.553512213286, 157.3338512359187, 56.22939583379775, 0.0, 0.03200000151991844, 0.9760000463575125, 0.0, 0.0, 0.0, 0.0, 0.0, 1.7564803928269908E9, 0.0, 2025-08-29 12:13:12.826
57.0, -726.9280942874029, -653.2445853604004, 292.60229273326695, 186.56116938963532, 0.0, 0.03200000151991844, 0.9760000463575125, 0.0, 0.0, 0.0, 0.0, 0.0, 1.7564803928269908E9, 0.0, 2025-08-29 12:13:12.826
58.0, -751.2767129489221, -582.7512110956013, 107.73529802355915, 34.5342361908406, 0.0, 0.03200000151991844, 0.9760000463575125, 0.0, 0.0, 0.0, 0.0, 0.0, 1.756480392827714E9, 0.0, 2025-08-29 12:13:12.827
58.0, -837.3916493286379, -690.9465168137103, 70.22784136794508, -18.359168882481754, 0.0, 0.03200000151991844, 0.9760000463575125, 0.0, 0.0, 0.0, 0.0, 0.0, 1.756480392827714E9, 0.0, 2025-08-29 12:13:12.827
59.0, -631.5812148670666, -735.8010069322772, 254.53759098425508, 145.61300477478653, 0.0, 0.03200000151991844, 0.9760000463575125, 0.0, 0.0, 0.0, 0.0, 0.0, 1.7564803928419843E9, 0.0, 2025-08-29 12:13:12.841
59.0, -673.4176057213917, -903.2755968980491, 162.20320097822696, 87.9325277581811, 0.0, 0.03200000151991844, 0.9760000463575125, 0.0, 0.0, 0.0, 0.0, 0.0, 1.7564803928419843E9, 0.0, 2025-08-29 12:13:12.841
60.0, -460.06940289912745, -1137.337235624902, 21.72133894264698, -55.309380444698036, 0.0, 0.03200000151991844, 0.9920000471174717, 0.0, 0.0, 0.0, 0.0, 0.0, 1.7564803928426905E9, 0.0, 2025-08-29 12:13:12.842
60.0, -466.8610612186603, -1232.398012698628, 183.61786812450737, 65.63898412231356, 0.0, 0.03200000151991844, 0.9920000471174717, 0.0, 0.0, 0.0, 0.0, 0.0, 1.7564803928426905E9, 0.0, 2025-08-29 12:13:12.842
61.0, -368.25485898694023, -1103.6482168240473, 223.26454755477607, 120.03208907786757, 0.0, 0.03200000151991844, 0.9920000471174717, 0.0, 0.0, 0.0, 0.0, 0.0, 1.7564803928563032E9, 0.0, 2025-08-29 12:13:12.856
61.0, -536.4157205945812, -1027.887193471659, 33.988210797309875, -45.92223155591637, 0.0, 0.03200000151991844, 0.9920000471174717, 0.0, 0.0, 0.0, 0.0, 0.0, 1.7564803928563032E9, 0.0, 2025-08-29 12:13:12.856
62.0, -515.3507340941578, -877.9452544981614, 108.30002291686833, 9.918214682489634, 0.0, 0.03200000151991844, 0.9920000471174717, 0.0, 0.0, 0.0, 0.0, 0.0, 1.7564803928719976E9, 0.0, 2025-08-29 12:13:12.871
62.0, -740.4459626772441, -639.5490717226639, 236.1073640026152, 134.46436300687492, 0.0, 0.03200000151991844, 0.9920000471174717, 0.0, 0.0, 0.0, 0.0, 0.0, 1.7564803928719976E9, 0.0, 2025-08-29 12:13:12.871
63.0, -731.0363743887283, -557.5854242937639, 74.71572131477296, -9.383408988825977, 0.0, 0.03200000151991844, 0.9920000471174717, 0.0, 0.0, 0.0, 0.0, 0.0, 1.756480392872772E9, 0.0, 2025-08-29 12:13:12.872
63.0, -832.1632691905834, -692.771587992087, 61.92900336626917, -31.609634425491095, 0.0, 0.03200000151991844, 0.9920000471174717, 0.0, 0.0, 0.0, 0.0, 0.0, 1.756480392872772E9, 0.0, 2025-08-29 12:13:12.872
64.0, -681.6472555738874, -787.3031692220829, 252.36470910999924, 132.93100402504206, 0.0, 0.03200000151991844, 0.9920000471174717, 0.0, 0.0, 0.0, 0.0, 0.0, 1.756480392886302E9, 0.0, 2025-08-29 12:13:12.886
64.0, -696.6199450464919, -921.922738077119, 169.24169269483536, 71.38721035420895, 0.0, 0.03200000151991844, 0.9920000471174717, 0.0, 0.0, 0.0, 0.0, 0.0, 1.756480392886302E9, 0.0, 2025-08-29 12:13:12.886
65.0, -456.0564902466722, -1155.139159413986, 52.05940738320351, -68.08861859329045, 0.0, 0.03200000151991844, 0.9920000471174717, 0.0, 0.0, 0.0, 0.0, 0.0, 1.7564803929031258E9, 0.0, 2025-08-29 12:13:12.903
65.0, -503.5158206843771, -1277.6433223625645, 215.23124244995415, 72.10527114570141, 0.0, 0.03200000151991844, 0.9920000471174717, 0.0, 0.0, 0.0, 0.0, 0.0, 1.7564803929031258E9, 0.0, 2025-08-29 12:13:12.903
66.0, -405.3172675478272, -1153.0298558389768, 261.57982260081917, 127.41839149035513, 0.0, 0.03200000151991844, 0.9920000471174717, 0.0, 0.0, 0.0, 0.0, 0.0, 1.7564803929169867E9, 0.0, 2025-08-29 12:13:12.916
66.0, -552.471111104358, -1054.7658544532023, 80.31435154844075, -32.63062711339444, 0.0, 0.03200000151991844, 0.9920000471174717, 0.0, 0.0, 0.0, 0.0, 0.0, 1.7564803929169867E9, 0.0, 2025-08-29 12:13:12.916
67.0, -560.2538429121487, -946.1198907904327, 141.46171582397074, 22.0841092383489, 0.0, 0.03200000151991844, 0.9920000471174717, 0.0, 0.0, 0.0, 0.0, 0.0, 1.7564803929177089E9, 0.0, 2025-08-29 12:13:12.917
67.0, -795.2972053773701, -703.0076941708103, 291.97024964075536, 151.78383970167488, 0.0, 0.03200000151991844, 0.9920000471174717, 0.0, 0.0, 0.0, 0.0, 0.0, 1.7564803929177089E9, 0.0, 2025-08-29 12:13:12.917
68.0, -771.732095756568, -598.6794450068846, 127.74002288654447, 10.580176974646747, 0.0, 0.03200000151991844, 0.9920000471174717, 0.0, 0.0, 0.0, 0.0, 0.0, 1.7564803929319544E9, 0.0, 2025-08-29 12:13:12.931
68.0, -866.2655469365418, -729.6731808548793, 80.79305874276906, -27.43216617498547, 0.0, 0.03200000151991844, 0.9920000471174717, 0.0, 0.0, 0.0, 0.0, 0.0, 1.7564803929319544E9, 0.0, 2025-08-29 12:13:12.931
69.0, -725.9632000988349, -835.1402295553125, 276.70023812167346, 140.31730643752962, 0.0, 0.03200000151991844, 0.9920000471174717, 0.0, 0.0, 0.0, 0.0, 0.0, 1.756480392932691E9, 0.0, 2025-08-29 12:13:12.932
69.0, -717.9186752941459, -945.8730573933572, 210.86303930170834, 87.51739886309952, 0.0, 0.03200000151991844, 0.9920000471174717, 0.0, 0.0, 0.0, 0.0, 0.0, 1.756480392932691E9, 0.0, 2025-08-29 12:13:12.932
70.0, -947.8178053703159, -1149.8172817770392, 81.43632153514773, -33.41226620413363, 0.0, 0.03200000151991844, 0.9760000463575125, 0.0, 0.0, 0.0, 0.0, 0.0, 1.756480392946344E9, 0.0, 2025-08-29 12:13:12.946
70.0, -993.8746733246371, -1299.914426598698, 244.7876717997715, 103.7149055711925, 0.0, 0.03200000151991844, 0.9760000463575125, 0.0, 0.0, 0.0, 0.0, 0.0, 1.756480392946344E9, 0.0, 2025-08-29 12:13:12.946
71.0, -884.3068243227899, -1146.1858389200643, 274.2356440508738, 146.4806615645066, 0.0, 0.03200000151991844, 0.9760000463575125, 0.0, 0.0, 0.0, 0.0, 0.0, 1.756480392961955E9, 0.0, 2025-08-29 12:13:12.961
71.0, -1020.0128341149539, -1031.2718029315583, 88.19432075507939, -3.8333974545821548, 0.0, 0.03200000151991844, 0.9760000463575125, 0.0, 0.0, 0.0, 0.0, 0.0, 1.756480392961955E9, 0.0, 2025-08-29 12:13:12.961
72.0, -1037.1901946114376, -934.8553121238947, 151.04707941040397, 30.9775913329795, 0.0, 0.03200000151991844, 0.9760000463575125, 0.0, 0.0, 0.0, 0.0, 0.0, 1.7564803929626856E9, 0.0, 2025-08-29 12:13:12.962
72.0, -798.7491330364719, -725.2226999076083, 289.96566326450557, 158.77371271885931, 0.0, 0.03200000151991844, 0.9760000463575125, 0.0, 0.0, 0.0, 0.0, 0.0, 1.7564803929626856E9, 0.0, 2025-08-29 12:13:12.962
73.0, -770.5951661700383, -595.3023153468966, 124.92013831995428, 19.095929173752666, 0.0, 0.03200000151991844, 0.9760000463575125, 0.0, 0.0, 0.0, 0.0, 0.0, 1.7564803929762807E9, 0.0, 2025-08-29 12:13:12.976
73.0, -855.1730036679655, -716.0449854163453, 80.53874554578215, -30.289449741132557, 0.0, 0.03200000151991844, 0.9760000463575125, 0.0, 0.0, 0.0, 0.0, 0.0, 1.7564803929762807E9, 0.0, 2025-08-29 12:13:12.976
74.0, -719.6876479731873, -841.2961048823781, 268.420099619776, 130.74316255096346, 0.0, 0.03200000151991844, 0.9760000463575125, 0.0, 0.0, 0.0, 0.0, 0.0, 1.7564803929919548E9, 0.0, 2025-08-29 12:13:12.991
74.0, -704.9898411473259, -938.0379669861868, 201.33003431465477, 80.35175054799765, 0.0, 0.03200000151991844, 0.9760000463575125, 0.0, 0.0, 0.0, 0.0, 0.0, 1.7564803929919548E9, 0.0, 2025-08-29 12:13:12.991
75.0, -924.0021224524826, -1135.0297173522413, 65.82597912009805, -39.85611382778734, 0.0, 0.03200000151991844, 0.9760000463575125, 0.0, 0.0, 0.0, 0.0, 0.0, 1.7564803929927E9, 0.0, 2025-08-29 12:13:12.992
75.0, -1004.7951811952516, -1306.2647767234594, 206.32654065545648, 79.94784135278314, 0.0, 0.03200000151991844, 0.9760000463575125, 0.0, 0.0, 0.0, 0.0, 0.0, 1.7564803929927E9, 0.0, 2025-08-29 12:13:12.992
76.0, -901.6599601171911, -1163.2360428180546, 258.868395132944, 133.19279702194035, 0.0, 0.03200000151991844, 0.9760000463575125, 0.0, 0.0, 0.0, 0.0, 0.0, 1.7564803930062785E9, 0.0, 2025-08-29 12:13:13.006
76.0, -1024.6877090595663, -1022.6475936337374, 58.72390910424292, -36.50890336744487, 0.0, 0.03200000151991844, 0.9760000463575125, 0.0, 0.0, 0.0, 0.0, 0.0, 1.7564803930062785E9, 0.0, 2025-08-29 12:13:13.006
77.0, -1038.9180283909664, -926.3806988243014, 139.34493244905025, 12.812897248193622, 0.0, 0.03200000151991844, 0.9760000463575125, 0.0, 0.0, 0.0, 0.0, 0.0, 1.7564803930219572E9, 0.0, 2025-08-29 12:13:13.021
77.0, -800.5068860156462, -713.4270554473624, 279.56126158777624, 139.31127334944904, 0.0, 0.03200000151991844, 0.9760000463575125, 0.0, 0.0, 0.0, 0.0, 0.0, 1.7564803930219572E9, 0.0, 2025-08-29 12:13:13.021
78.0, -743.5407298905775, -554.5523654296994, 125.91869160812348, 19.103408973664045, 0.0, 0.03200000151991844, 0.9760000463575125, 0.0, 0.0, 0.0, 0.0, 0.0, 1.7564803930227E9, 0.0, 2025-08-29 12:13:13.022
78.0, -837.1691252812743, -693.2166360868141, 68.57480558753014, -40.37222002167255, 0.0, 0.03200000151991844, 0.9760000463575125, 0.0, 0.0, 0.0, 0.0, 0.0, 1.7564803930227E9, 0.0, 2025-08-29 12:13:13.022
79.0, -701.8221458848566, -830.0651853154413, 269.5084105068818, 127.79238148592412, 0.0, 0.03200000151991844, 0.9760000463575125, 0.0, 0.0, 0.0, 0.0, 0.0, 1.7564803930362806E9, 0.0, 2025-08-29 12:13:13.036
79.0, -696.8181597441435, -921.6721647800878, 194.84504779148847, 76.17802219744772, 0.0, 0.03200000151991844, 0.9760000463575125, 0.0, 0.0, 0.0, 0.0, 0.0, 1.7564803930362806E9, 0.0, 2025-08-29 12:13:13.036
80.0, -936.141837708652, -1117.8934957552701, 41.90183910354972, -65.91573671903461, 0.0, 0.03200000151991844, 0.9760000463575125, 0.0, 0.0, 0.0, 0.0, 0.0, 1.7564803930519593E9, 0.0, 2025-08-29 12:13:13.051
80.0, -989.7084247739986, -1288.5226913336664, 206.67061145137995, 82.45731422305107, 0.0, 0.03200000151991844, 0.9760000463575125, 0.0, 0.0, 0.0, 0.0, 0.0, 1.7564803930519593E9, 0.0, 2025-08-29 12:13:13.051
81.0, -890.3991213506088, -1156.02925560344, 248.09748326055706, 123.87670623231679, 0.0, 0.03200000151991844, 0.9760000463575125, 0.0, 0.0, 0.0, 0.0, 0.0, 1.756480393052688E9, 0.0, 2025-08-29 12:13:13.052
81.0, -1024.9869010560215, -1008.0545040066354, 45.275228863582015, -49.59481331240386, 0.0, 0.03200000151991844, 0.9760000463575125, 0.0, 0.0, 0.0, 0.0, 0.0, 1.756480393052688E9, 0.0, 2025-08-29 12:13:13.052
82.0, -1028.0835382193327, -924.600506445393, 121.35975356213748, 8.119322803802788, 0.0, 0.03200000151991844, 0.9760000463575125, 0.0, 0.0, 0.0, 0.0, 0.0, 1.7564803930662832E9, 0.0, 2025-08-29 12:13:13.066
82.0, -798.5097794393077, -720.6301027620211, 269.59816810581833, 145.91593667119741, 0.0, 0.03200000151991844, 0.9760000463575125, 0.0, 0.0, 0.0, 0.0, 0.0, 1.7564803930662832E9, 0.0, 2025-08-29 12:13:13.066
83.0, -739.5614763377234, -549.9223692845553, 87.68195446114987, 1.8437706781551242, 0.0, 0.03200000151991844, 0.9760000463575125, 0.0, 0.0, 0.0, 0.0, 0.0, 1.75648039308198E9, 0.0, 2025-08-29 12:13:13.081
83.0, -806.322430446744, -658.3158897003159, 54.87181214988232, -46.32240085117519, 0.0, 0.03200000151991844, 0.9760000463575125, 0.0, 0.0, 0.0, 0.0, 0.0, 1.75648039308198E9, 0.0, 2025-08-29 12:13:13.081
84.0, -703.5686791641638, -827.0583057510667, 265.1589068584144, 141.35325872525573, 0.0, 0.03200000151991844, 0.9760000463575125, 0.0, 0.0, 0.0, 0.0, 0.0, 1.7564803930826993E9, 0.0, 2025-08-29 12:13:13.082
84.0, -705.3208222934045, -927.3007142134011, 180.0836626663804, 62.976175353862345, 0.0, 0.03200000151991844, 0.9760000463575125, 0.0, 0.0, 0.0, 0.0, 0.0, 1.7564803930826993E9, 0.0, 2025-08-29 12:13:13.082
85.0, -927.2726649637334, -1103.5360198253766, 38.2778760464862, -76.14436309784651, 0.0, 0.03200000151991844, 0.9760000463575125, 0.0, 0.0, 0.0, 0.0, 0.0, 1.7564803930963628E9, 0.0, 2025-08-29 12:13:13.096
85.0, -1004.512818748597, -1297.3151961294934, 196.12035367637873, 78.39204297121614, 0.0, 0.03200000151991844, 0.9760000463575125, 0.0, 0.0, 0.0, 0.0, 0.0, 1.7564803930963628E9, 0.0, 2025-08-29 12:13:13.096
86.0, -908.378690387588, -1164.4402906037867, 240.7074409481138, 109.85956119839102, 0.0, 0.03200000151991844, 0.9760000463575125, 0.0, 0.0, 0.0, 0.0, 0.0, 1.7564803931119578E9, 0.0, 2025-08-29 12:13:13.111
86.0, -993.9289018739946, -982.8438384053297, 54.475382754579186, -41.12393991276622, 0.0, 0.03200000151991844, 0.9760000463575125, 0.0, 0.0, 0.0, 0.0, 0.0, 1.7564803931119578E9, 0.0, 2025-08-29 12:13:13.111
87.0, -1026.0621222932823, -914.2372436681762, 113.40124645642936, 1.4697806825861335, 0.0, 0.03200000151991844, 0.9760000463575125, 0.0, 0.0, 0.0, 0.0, 0.0, 1.7564803931126947E9, 0.0, 2025-08-29 12:13:13.112
